File: testing/data/240902_04_MCL13_cswWE_CV2_750C_CO2.DTA
EXPLAIN
TAG	CV
TITLE	LABEL	Cyclic Voltammetry	Test Identifier
DATE	LABEL	9/2/2024	Date
TIME	LABEL	17:45:37	Time
NOTES	NOTES	5	Notes...
	cswWE - carbon steel wire
cspWE - carbon steel plate 2x2 tapered

Carbon steel plate counter electrode
Carbon steel wire reference electrode
PSTAT	PSTAT	REF3000-48128	Potentiostat
VINIT	POTEN	0.00000E+000	T	Initial E (V)
VLIMIT1	POTEN	1.70000E+000	F	Scan Limit 1 (V)
VLIMIT2	POTEN	-6.00000E-001	F	Scan Limit 2 (V)
VFINAL	POTEN	1.70000E+000	F	Final E (V)
SCANRATE	QUANT	2.00000E+000	Scan Rate (mV/s)
STEPSIZE	QUANT	1.00000E+000	Step Size (mV)
CYCLES	IQUANT	2	Cycles (#)
IMODE	SELECTOR	0	I/E Range Mode
IRANGE	QUANT	3.00000E-001	Max Current (mA)
AREA	QUANT	1.00000E+000	Sample Area (cm^2)
EQDELAY	QUANT	0.00000E+000	Equil. Time (s)
IRCOMP	SELECTOR	0	IRComp
PFCOR	QUANT	5.00000E+001	PF Corr. (ohm)
SAMPLINGMODE	SELECTOR	1	Sampling Mode
EOC	QUANT	0.4505452	Open Circuit (V)
ELECTRODETYPE	SELECTOR	0	Electrode Type
STRIPPING	TOGGLE	F	Used for Stripping
SEQUENCER	TOGGLE	TRUE	Run as Sequence
PSTATMODEL	IQUANT	5	Pstat Model
PSTATSECTION	LABEL	REF3000-48128	Pstat Section
PSTATSERIALNO	LABEL	48128	Pstat Serial Number
CTRLMODE	IQUANT	1	Control Mode
ELECTROMETER	IQUANT	0	RE=0 or CS=1
IESTAB	IQUANT	2	I/E Stability
CASPEED	IQUANT	4	Control Amp Speed
CONVENTION	IQUANT	1	Current Convention
ICHRANGE	IQUANT	2	Ich Range
ICHRANGEMODE	TOGGLE	F	Ich Auto Range
ICHOFFSETENABLE	TOGGLE	F	Ich Offset Enable
ICHOFFSET	QUANT	0	Ich Offset (V)
ICHFILTER	IQUANT	3	Ich Filter
VCHRANGE	IQUANT	2	Vch Range
VCHRANGEMODE	TOGGLE	F	Vch Auto Range
VCHOFFSETENABLE	TOGGLE	F	Vch Offset Enable
VCHOFFSET	QUANT	0	Vch Offset (V)
VCHFILTER	IQUANT	3	Vch Filter
ACHRANGE	IQUANT	2	Ach Range
ACHOFFSETENABLE	TOGGLE	F	Ach Offset Enable
ACHOFFSET	QUANT	0	Ach Offset (V)
ACHFILTER	IQUANT	1	Ach Filter
IERANGELOWERLIMIT	IQUANT	2	I/E Range Lower Limit
IERANGEMODE	TOGGLE	T	I/E AutoRange
IERANGE	IQUANT	9	I/E Range
POSFEEDENABLE	TOGGLE	F	Positive Feedback IR Comp
POSFEEDRESISTANCE	QUANT	0	Positive Feedback Resistance (ohm)
ACHSELECT	IQUANT	4	Ach Select
SENSECABLEID	IQUANT	14	Sense Cable ID
PWRCABLEID	IQUANT	7	Power Cable ID
DCCALDATE	LABEL	8/16/2024	DC Calibration Date
ACCALDATE	LABEL	8/16/2024	AC Calibration Date
THERMOSELECT	IQUANT	1	Thermo Select
FRAMEWORKVERSION	LABEL	7.10.3	Framework Version
INSTRUMENTVERSION	LABEL	4.91	Instrument Version
COMMVERSION	LABEL	5.10	Communications Version
CPUPLDVERSION	LABEL	6.00	CPU PLD Version
CTRLPLDVERSION	LABEL	3.21	CTRL PLD Version
PSTATPLDVERSION	LABEL	0.00	PSTAT PLD Version
COMPLIANCEVOLTAGE	IQUANT	0	Compliance Voltage
CURVE1	TABLE
	Pt	T	Vf	Im	Vu	Sig	Ach	IERange	Over	Temp
	#	s	V vs. Ref.	A	V	V	V	#	bits	deg C
	0	0.5	4.49853E-001	8.42792E-004	0.00000E+000	4.50550E-001	-8.11881E-005	9	...........	-327.56
	36	18.5	4.85865E-001	6.48103E-003	0.00000E+000	4.86550E-001	-8.10881E-005	10	...........	-327.56
	72	36.5	5.21832E-001	8.17764E-003	0.00000E+000	5.22550E-001	-8.63548E-005	10	...........	-327.56
	108	54.5	5.57762E-001	8.88797E-003	0.00000E+000	5.58550E-001	-9.04214E-005	10	...........	-327.56
	144	72.5	5.93770E-001	8.84519E-003	0.00000E+000	5.94550E-001	-9.15214E-005	10	...........	-327.56
	180	90.5	6.29658E-001	8.74124E-003	0.00000E+000	6.30550E-001	-8.97214E-005	10	...........	-327.56
	216	108.5	6.65659E-001	8.44857E-003	0.00000E+000	6.66550E-001	-9.11881E-005	10	...........	-327.56
	252	126.5	7.01677E-001	7.98058E-003	0.00000E+000	7.02550E-001	-9.15548E-005	10	...........	-327.56
	288	144.5	7.37560E-001	7.81514E-003	0.00000E+000	7.38550E-001	-9.01214E-005	10	...........	-327.56
	324	162.5	7.73596E-001	7.53572E-003	0.00000E+000	7.74550E-001	-8.89214E-005	10	...........	-327.56
	360	180.5	8.09534E-001	7.27242E-003	0.00000E+000	8.10550E-001	-8.90214E-005	10	...........	-327.56
	396	198.5	8.45500E-001	7.25311E-003	0.00000E+000	8.46550E-001	-8.87881E-005	10	...........	-327.56
	432	216.5	8.81499E-001	7.42364E-003	0.00000E+000	8.82550E-001	-8.99214E-005	10	...........	-327.56
	468	234.5	9.17416E-001	7.75276E-003	0.00000E+000	9.18550E-001	-8.86214E-005	10	...........	-327.56
	504	252.5	9.53408E-001	8.51087E-003	0.00000E+000	9.54550E-001	-8.75214E-005	10	...........	-327.56
	540	270.5	9.89264E-001	1.01204E-002	0.00000E+000	9.90550E-001	-8.67881E-005	10	...........	-327.56
	576	288.5	1.02524E+000	1.37281E-002	0.00000E+000	1.02655E+000	-9.21214E-005	10	...........	-327.56
	612	306.5	1.06116E+000	2.03632E-002	0.00000E+000	1.06255E+000	-9.11214E-005	10	...........	-327.56
	648	324.5	1.09727E+000	3.03826E-002	0.00000E+000	1.09855E+000	-9.08881E-005	11	...........	-327.56
	684	342.5	1.13324E+000	4.62216E-002	0.00000E+000	1.13455E+000	-8.91548E-005	11	...........	-327.56
	720	360.5	1.16910E+000	7.07382E-002	0.00000E+000	1.17055E+000	-8.89548E-005	11	...........	-327.56
	756	378.5	1.20510E+000	1.01084E-001	0.00000E+000	1.20655E+000	-8.90881E-005	11	...........	-327.56
	792	396.5	1.24100E+000	1.43147E-001	0.00000E+000	1.24255E+000	-8.76214E-005	11	...........	-327.56
	828	414.5	1.27684E+000	1.98405E-001	0.00000E+000	1.27855E+000	-8.81548E-005	11	...........	-327.56
	864	432.5	1.31276E+000	2.60425E-001	0.00000E+000	1.31455E+000	-8.26214E-005	11	...........	-327.56
	900	450.5	1.34883E+000	3.33862E-001	0.00000E+000	1.35055E+000	-9.37214E-005	12	...........	-327.56
	936	468.5	1.38483E+000	4.15814E-001	0.00000E+000	1.38655E+000	-9.39214E-005	12	...........	-327.56
	972	486.5	1.42076E+000	5.04865E-001	0.00000E+000	1.42255E+000	-8.67214E-005	12	...........	-327.56
	1008	504.5	1.45662E+000	5.96069E-001	0.00000E+000	1.45855E+000	-8.67881E-005	12	...........	-327.56
	1044	522.5	1.49260E+000	6.87284E-001	0.00000E+000	1.49455E+000	-8.98881E-005	12	...........	-327.56
	1080	540.5	1.52844E+000	7.83142E-001	0.00000E+000	1.53055E+000	-8.88214E-005	12	...........	-327.56
	1116	558.5	1.56433E+000	8.78667E-001	0.00000E+000	1.56655E+000	-8.58548E-005	12	...........	-327.56
	1152	576.5	1.60020E+000	9.79266E-001	0.00000E+000	1.60255E+000	-8.94548E-005	12	...........	-327.56
	1188	594.5	1.63617E+000	1.08114E+000	0.00000E+000	1.63855E+000	-9.02881E-005	12	...........	-327.56
	1224	612.5	1.67212E+000	1.18539E+000	0.00000E+000	1.67455E+000	-9.07548E-005	12	...........	-327.56
	1260	630.5	1.68601E+000	1.23946E+000	0.00000E+000	1.68855E+000	-8.83881E-005	12	...........	-327.56
	1296	648.5	1.65014E+000	1.16422E+000	0.00000E+000	1.65255E+000	-8.50881E-005	12	...........	-327.56
	1332	666.5	1.61423E+000	1.07401E+000	0.00000E+000	1.61655E+000	-8.99881E-005	12	...........	-327.56
	1368	684.5	1.57822E+000	9.82643E-001	0.00000E+000	1.58055E+000	-8.73881E-005	12	...........	-327.56
	1404	702.5	1.54235E+000	8.94243E-001	0.00000E+000	1.54455E+000	-8.72881E-005	12	...........	-327.56
	1440	720.5	1.50642E+000	8.08728E-001	0.00000E+000	1.50855E+000	-8.95214E-005	12	...........	-327.56
	1476	738.5	1.47057E+000	7.19341E-001	0.00000E+000	1.47255E+000	-8.84548E-005	12	...........	-327.56
	1512	756.5	1.43463E+000	6.33229E-001	0.00000E+000	1.43655E+000	-8.92881E-005	12	...........	-327.56
	1548	774.5	1.39867E+000	5.40854E-001	0.00000E+000	1.40055E+000	-8.65214E-005	12	...........	-327.56
	1584	792.5	1.36284E+000	4.57147E-001	0.00000E+000	1.36455E+000	-9.15881E-005	12	...........	-327.56
	1620	810.5	1.32691E+000	3.78470E-001	0.00000E+000	1.32855E+000	-9.20214E-005	12	...........	-327.56
	1656	828.5	1.29104E+000	3.06431E-001	0.00000E+000	1.29255E+000	-8.85881E-005	12	...........	-327.56
	1692	846.5	1.25507E+000	2.42400E-001	0.00000E+000	1.25655E+000	-8.21881E-005	12	...........	-327.56
	1728	864.5	1.21889E+000	1.83846E-001	0.00000E+000	1.22055E+000	-8.52214E-005	11	...........	-327.56
	1764	882.5	1.18306E+000	1.31020E-001	0.00000E+000	1.18455E+000	-8.68881E-005	11	...........	-327.56
	1800	900.5	1.14713E+000	8.53863E-002	0.00000E+000	1.14855E+000	-9.02548E-005	11	...........	-327.56
	1836	918.5	1.11126E+000	5.35430E-002	0.00000E+000	1.11255E+000	-8.58548E-005	11	...........	-327.56
	1872	936.5	1.07528E+000	3.05548E-002	0.00000E+000	1.07655E+000	-9.35214E-005	11	...........	-327.56
	1908	954.5	1.03914E+000	1.52540E-002	0.00000E+000	1.04055E+000	-8.81214E-005	10	...........	-327.56
	1944	972.5	1.00336E+000	7.99944E-003	0.00000E+000	1.00455E+000	-8.86214E-005	10	...........	-327.56
	1980	990.5	9.67371E-001	6.46775E-003	0.00000E+000	9.68550E-001	-9.02881E-005	10	...........	-327.56
	2016	1008.5	9.31439E-001	5.99379E-003	0.00000E+000	9.32550E-001	-8.96214E-005	10	...........	-327.56
	2052	1026.5	8.95458E-001	5.94626E-003	0.00000E+000	8.96550E-001	-8.84881E-005	10	...........	-327.56
	2088	1044.5	8.59462E-001	5.87079E-003	0.00000E+000	8.60550E-001	-8.89881E-005	10	...........	-327.56
	2124	1062.5	8.23519E-001	5.75209E-003	0.00000E+000	8.24550E-001	-9.07214E-005	10	...........	-327.56
	2160	1080.5	7.87565E-001	5.75566E-003	0.00000E+000	7.88550E-001	-9.02214E-005	10	...........	-327.56
	2196	1098.5	7.51637E-001	5.52171E-003	0.00000E+000	7.52550E-001	-8.67214E-005	10	...........	-327.56
	2232	1116.5	7.15681E-001	5.40746E-003	0.00000E+000	7.16550E-001	-8.99881E-005	10	...........	-327.56
	2268	1134.5	6.79633E-001	5.80718E-003	0.00000E+000	6.80550E-001	-9.08548E-005	10	...........	-327.56
	2304	1152.5	6.43764E-001	5.58384E-003	0.00000E+000	6.44550E-001	-8.92548E-005	10	...........	-327.56
	2340	1170.5	6.07794E-001	5.26834E-003	0.00000E+000	6.08550E-001	-9.07548E-005	10	...........	-327.56
	2376	1188.5	5.71846E-001	4.71493E-003	0.00000E+000	5.72550E-001	-8.72881E-005	10	...........	-327.56
	2412	1206.5	5.35876E-001	3.98160E-003	0.00000E+000	5.36550E-001	-8.80214E-005	10	...........	-327.56
	2448	1224.5	4.99879E-001	3.13851E-003	0.00000E+000	5.00550E-001	-9.15214E-005	10	...........	-327.56
	2484	1242.5	4.63754E-001	2.09512E-003	0.00000E+000	4.64550E-001	-9.04881E-005	9	...........	-327.56
	2520	1260.5	4.27882E-001	9.32398E-004	0.00000E+000	4.28550E-001	-8.97548E-005	9	...........	-327.56
	2556	1278.5	3.92394E-001	-2.57998E-004	0.00000E+000	3.92550E-001	-7.94214E-005	8	...........	-327.56
	2592	1296.5	3.56239E-001	-1.55337E-003	0.00000E+000	3.56550E-001	-8.72881E-005	9	...........	-327.56
	2628	1314.5	3.20109E-001	-3.11573E-003	0.00000E+000	3.20550E-001	-8.82881E-005	10	...........	-327.56
	2664	1332.5	2.84237E-001	-5.10261E-003	0.00000E+000	2.84550E-001	-8.97548E-005	10	...........	-327.56
	2700	1350.5	2.48222E-001	-6.57302E-003	0.00000E+000	2.48550E-001	-8.98214E-005	10	...........	-327.56
	2736	1368.5	2.12326E-001	-7.72505E-003	0.00000E+000	2.12550E-001	-8.91214E-005	10	...........	-327.56
	2772	1386.5	1.76347E-001	-9.24131E-003	0.00000E+000	1.76550E-001	-9.13548E-005	10	...........	-327.56
	2808	1404.5	1.40420E-001	-9.47159E-003	0.00000E+000	1.40550E-001	-8.96548E-005	10	...........	-327.56
	2844	1422.5	1.04417E-001	-9.15730E-003	0.00000E+000	1.04550E-001	-8.76881E-005	10	...........	-327.56
	2880	1440.5	6.84383E-002	-8.68059E-003	0.00000E+000	6.85500E-002	-9.13548E-005	10	...........	-327.56
	2916	1458.5	3.25243E-002	-8.01176E-003	0.00000E+000	3.25500E-002	-8.95214E-005	10	...........	-327.56
	2952	1476.5	-3.29030E-003	-6.32080E-003	0.00000E+000	-3.44998E-003	-8.90881E-005	10	...........	-327.56
	2988	1494.5	-3.92879E-002	-4.89342E-003	0.00000E+000	-3.94500E-002	-9.15214E-005	10	...........	-327.56
	3024	1512.5	-7.52693E-002	-4.63445E-003	0.00000E+000	-7.54499E-002	-9.07548E-005	10	...........	-327.56
	3060	1530.5	-1.11269E-001	-4.48138E-003	0.00000E+000	-1.11450E-001	-8.73881E-005	10	...........	-327.56
	3096	1548.5	-1.47174E-001	-4.80163E-003	0.00000E+000	-1.47450E-001	-8.67548E-005	10	...........	-327.56
	3132	1566.5	-1.83169E-001	-5.42485E-003	0.00000E+000	-1.83450E-001	-8.88548E-005	10	...........	-327.56
	3168	1584.5	-2.19076E-001	-6.28179E-003	0.00000E+000	-2.19450E-001	-8.73214E-005	10	...........	-327.56
	3204	1602.5	-2.55045E-001	-9.24998E-003	0.00000E+000	-2.55450E-001	-8.82881E-005	10	...........	-327.56
	3240	1620.5	-2.91035E-001	-1.10057E-002	0.00000E+000	-2.91450E-001	-8.84548E-005	10	...........	-327.56
	3276	1638.5	-3.26876E-001	-1.44925E-002	0.00000E+000	-3.27450E-001	-8.57881E-005	10	...........	-327.56
	3312	1656.5	-3.62778E-001	-2.24853E-002	0.00000E+000	-3.63450E-001	-8.70214E-005	10	...........	-327.56
	3348	1674.5	-3.98946E-001	-3.73817E-002	0.00000E+000	-3.99450E-001	-9.24548E-005	11	...........	-327.56
	3384	1692.5	-4.34906E-001	-6.06675E-002	0.00000E+000	-4.35450E-001	-8.65548E-005	11	...........	-327.56
	3420	1710.5	-4.70874E-001	-9.74469E-002	0.00000E+000	-4.71450E-001	-8.97214E-005	11	...........	-327.56
	3456	1728.5	-5.06675E-001	-1.51572E-001	0.00000E+000	-5.07450E-001	-9.12881E-005	11	...........	-327.56
	3492	1746.5	-5.42518E-001	-2.18662E-001	0.00000E+000	-5.43450E-001	-8.51881E-005	11	...........	-327.56
	3528	1764.5	-5.78662E-001	-2.92666E-001	0.00000E+000	-5.79450E-001	-8.91548E-005	12	...........	-327.56
	3548	1774.5	-5.98692E-001	-3.26499E-001	0.00000E+000	-5.99450E-001	-9.11214E-005	12	...........	-327.56
CURVE2	TABLE
	Pt	T	Vf	Im	Vu	Sig	Ach	IERange	Over	Temp
	#	s	V vs. Ref.	A	V	V	V	#	bits	deg C
	3549	1775	-5.98256E-001	-3.24415E-001	0.00000E+000	-5.99000E-001	-9.11881E-005	12	...........	-327.56
	3596	1798.5	-5.51112E-001	-1.84688E-001	0.00000E+000	-5.52000E-001	-8.56881E-005	11	...........	-327.56
	3643	1822	-5.04339E-001	-8.28784E-002	0.00000E+000	-5.05000E-001	-9.19214E-005	11	...........	-327.56
	3690	1845.5	-4.57256E-001	-2.08136E-002	0.00000E+000	-4.58000E-001	-8.16214E-005	10	...........	-327.56
	3737	1869	-4.10770E-001	1.35748E-002	0.00000E+000	-4.11000E-001	-8.73548E-005	10	...........	-327.56
	3784	1892.5	-3.63892E-001	2.21366E-002	0.00000E+000	-3.64000E-001	-8.74881E-005	10	...........	-327.56
	3831	1916	-3.16883E-001	2.01879E-002	0.00000E+000	-3.17000E-001	-8.74548E-005	10	...........	-327.56
	3878	1939.5	-2.69927E-001	2.00586E-002	0.00000E+000	-2.70000E-001	-8.89881E-005	10	...........	-327.56
	3925	1963	-2.23049E-001	2.52588E-002	0.00000E+000	-2.23000E-001	-8.71881E-005	10	...........	-327.56
	3972	1986.5	-1.75807E-001	2.94044E-002	0.00000E+000	-1.76000E-001	-8.98214E-005	11	...........	-327.56
	4019	2010	-1.28902E-001	3.60289E-002	0.00000E+000	-1.29000E-001	-8.96881E-005	11	...........	-327.56
	4066	2033.5	-8.19762E-002	3.63847E-002	0.00000E+000	-8.20000E-002	-9.02548E-005	11	...........	-327.56
	4113	2057	-3.50554E-002	4.15987E-002	0.00000E+000	-3.50000E-002	-9.00214E-005	11	...........	-327.56
	4160	2080.5	1.17646E-002	6.06402E-002	0.00000E+000	1.20000E-002	-9.03214E-005	11	...........	-327.56
	4207	2104	5.86542E-002	1.02151E-001	0.00000E+000	5.90000E-002	-9.07214E-005	11	...........	-327.56
	4254	2127.5	1.05519E-001	1.55876E-001	0.00000E+000	1.06000E-001	-9.07214E-005	11	...........	-327.56
	4301	2151	1.52348E-001	2.06461E-001	0.00000E+000	1.53000E-001	-8.81881E-005	11	...........	-327.56
	4348	2174.5	1.99222E-001	2.54348E-001	0.00000E+000	2.00000E-001	-8.68548E-005	11	...........	-327.56
	4395	2198	2.46335E-001	1.66473E-001	0.00000E+000	2.47000E-001	-8.91214E-005	11	...........	-327.56
	4442	2221.5	2.93412E-001	1.36237E-001	0.00000E+000	2.94000E-001	-8.94548E-005	11	...........	-327.56
	4489	2245	3.40290E-001	1.46733E-001	0.00000E+000	3.41000E-001	-9.07881E-005	11	...........	-327.56
	4536	2268.5	3.87208E-001	1.68837E-001	0.00000E+000	3.88000E-001	-8.85214E-005	11	...........	-327.56
	4583	2292	4.34148E-001	1.81624E-001	0.00000E+000	4.35000E-001	-9.14548E-005	11	...........	-327.56
	4630	2315.5	4.81143E-001	1.55284E-001	0.00000E+000	4.82000E-001	-9.07214E-005	11	...........	-327.56
	4677	2339	5.28087E-001	1.27574E-001	0.00000E+000	5.29000E-001	-8.98548E-005	11	...........	-327.56
	4724	2362.5	5.75176E-001	9.90166E-002	0.00000E+000	5.76000E-001	-9.18548E-005	11	...........	-327.56
	4771	2386	6.22193E-001	7.91067E-002	0.00000E+000	6.23000E-001	-9.21881E-005	11	...........	-327.56
	4818	2409.5	6.69154E-001	6.66207E-002	0.00000E+000	6.70000E-001	-9.01881E-005	11	...........	-327.56
	4865	2433	7.16102E-001	5.85930E-002	0.00000E+000	7.17000E-001	-9.50548E-005	11	...........	-327.56
	4912	2456.5	7.63082E-001	5.35041E-002	0.00000E+000	7.64000E-001	-8.98214E-005	11	...........	-327.56
	4959	2480	8.09986E-001	4.97918E-002	0.00000E+000	8.11000E-001	-9.05548E-005	11	...........	-327.56
	5006	2503.5	8.56992E-001	4.72839E-002	0.00000E+000	8.58000E-001	-9.37881E-005	11	...........	-327.56
	5053	2527	9.03953E-001	4.53543E-002	0.00000E+000	9.05000E-001	-9.50548E-005	11	...........	-327.56
	5100	2550.5	9.50882E-001	4.41614E-002	0.00000E+000	9.52000E-001	-9.06214E-005	11	...........	-327.56
	5147	2574	9.97810E-001	4.49521E-002	0.00000E+000	9.99000E-001	-9.45881E-005	11	...........	-327.56
	5194	2597.5	1.04474E+000	5.36164E-002	0.00000E+000	1.04600E+000	-8.94214E-005	11	...........	-327.56
	5241	2621	1.09163E+000	7.76613E-002	0.00000E+000	1.09300E+000	-8.95548E-005	11	...........	-327.56
	5288	2644.5	1.13857E+000	1.17033E-001	0.00000E+000	1.14000E+000	-9.18548E-005	11	...........	-327.56
	5335	2668	1.18548E+000	1.64923E-001	0.00000E+000	1.18700E+000	-8.79548E-005	11	...........	-327.56
	5382	2691.5	1.23233E+000	2.21574E-001	0.00000E+000	1.23400E+000	-8.12214E-005	11	...........	-327.56
	5429	2715	1.27945E+000	2.94486E-001	0.00000E+000	1.28100E+000	-8.63214E-005	12	...........	-327.56
	5476	2738.5	1.32635E+000	3.87418E-001	0.00000E+000	1.32800E+000	-9.12548E-005	12	...........	-327.56
	5523	2762	1.37318E+000	4.92775E-001	0.00000E+000	1.37500E+000	-8.68548E-005	12	...........	-327.56
[...]
	8413	4207	-3.34677E-001	3.22603E-002	0.00000E+000	-3.35000E-001	-9.02214E-005	11	...........	-327.56
	8437	4219	-3.10679E-001	2.97697E-002	0.00000E+000	-3.11000E-001	-8.91881E-005	11	...........	-327.56
	8461	4231	-2.86763E-001	2.77075E-002	0.00000E+000	-2.87000E-001	-9.32881E-005	11	...........	-327.56
	8485	4243	-2.62785E-001	2.74184E-002	0.00000E+000	-2.63000E-001	-8.81214E-005	11	...........	-327.56
	8509	4255	-2.38831E-001	2.91729E-002	0.00000E+000	-2.39000E-001	-9.21548E-005	11	...........	-327.56
	8533	4267	-2.14846E-001	3.13889E-002	0.00000E+000	-2.15000E-001	-9.18881E-005	11	...........	-327.56
	8557	4279	-1.90894E-001	3.31450E-002	0.00000E+000	-1.91000E-001	-9.26881E-005	11	...........	-327.56
	8581	4291	-1.66849E-001	3.54178E-002	0.00000E+000	-1.67000E-001	-9.06214E-005	11	...........	-327.56
	8605	4303	-1.42845E-001	3.78987E-002	0.00000E+000	-1.43000E-001	-9.10214E-005	11	...........	-327.56
	8629	4315	-1.18884E-001	3.98559E-002	0.00000E+000	-1.19000E-001	-9.30214E-005	11	...........	-327.56
	8653	4327	-9.49315E-002	4.13281E-002	0.00000E+000	-9.50000E-002	-9.13548E-005	11	...........	-327.56
	8677	4339	-7.09558E-002	4.51729E-002	0.00000E+000	-7.10000E-002	-9.00881E-005	11	...........	-327.56
	8701	4351	-4.69832E-002	4.88599E-002	0.00000E+000	-4.70000E-002	-9.12881E-005	11	...........	-327.56
	8725	4363	-2.29898E-002	5.42376E-002	0.00000E+000	-2.30000E-002	-9.13881E-005	11	...........	-327.56
	8749	4375	7.25523E-004	6.23102E-002	0.00000E+000	1.00005E-003	-8.76214E-005	11	...........	-327.56
	8773	4387	2.47067E-002	7.30527E-002	0.00000E+000	2.50000E-002	-8.79214E-005	11	...........	-327.56
	8797	4399	4.86625E-002	8.80742E-002	0.00000E+000	4.90000E-002	-9.16548E-005	11	...........	-327.56
	8821	4411	7.26027E-002	1.08554E-001	0.00000E+000	7.30000E-002	-8.74214E-005	11	...........	-327.56
	8845	4423	9.65473E-002	1.30459E-001	0.00000E+000	9.70000E-002	-8.74548E-005	11	...........	-327.56
	8869	4435	1.20443E-001	1.51134E-001	0.00000E+000	1.21000E-001	-8.83214E-005	11	...........	-327.56
	8893	4447	1.44395E-001	1.70875E-001	0.00000E+000	1.45000E-001	-8.88214E-005	11	...........	-327.56
	8917	4459	1.68347E-001	1.83572E-001	0.00000E+000	1.69000E-001	-9.04214E-005	11	...........	-327.56
	8941	4471	1.92320E-001	1.79627E-001	0.00000E+000	1.93000E-001	-9.03548E-005	11	...........	-327.56
	8965	4483	2.16442E-001	1.42669E-001	0.00000E+000	2.17000E-001	-9.14881E-005	11	...........	-327.56
	8989	4495	2.40476E-001	1.21014E-001	0.00000E+000	2.41000E-001	-8.94214E-005	11	...........	-327.56
	9013	4507	2.64454E-001	1.16857E-001	0.00000E+000	2.65000E-001	-9.14881E-005	11	...........	-327.56
	9037	4519	2.88441E-001	1.17567E-001	0.00000E+000	2.89000E-001	-9.03881E-005	11	...........	-327.56
	9061	4531	3.12373E-001	1.18823E-001	0.00000E+000	3.13000E-001	-9.11548E-005	11	...........	-327.56
	9085	4543	3.36356E-001	1.21730E-001	0.00000E+000	3.37000E-001	-8.74881E-005	11	...........	-327.56
	9109	4555	3.60318E-001	1.23566E-001	0.00000E+000	3.61000E-001	-8.73214E-005	11	...........	-327.56
	9133	4567	3.84287E-001	1.25083E-001	0.00000E+000	3.85000E-001	-8.77214E-005	11	...........	-327.56
	9157	4579	4.08251E-001	1.27105E-001	0.00000E+000	4.09000E-001	-9.14214E-005	11	...........	-327.56
	9181	4591	4.32236E-001	1.30726E-001	0.00000E+000	4.33000E-001	-8.88214E-005	11	...........	-327.56
	9205	4603	4.56228E-001	1.36901E-001	0.00000E+000	4.57000E-001	-9.25548E-005	11	...........	-327.56
	9229	4615	4.80181E-001	1.37827E-001	0.00000E+000	4.81000E-001	-9.00214E-005	11	...........	-327.56
	9253	4627	5.04161E-001	1.36738E-001	0.00000E+000	5.05000E-001	-9.36881E-005	11	...........	-327.56
	9277	4639	5.28086E-001	1.32267E-001	0.00000E+000	5.29000E-001	-8.83214E-005	11	...........	-327.56
	9301	4651	5.52027E-001	1.24611E-001	0.00000E+000	5.53000E-001	-9.24548E-005	11	...........	-327.56
	9325	4663	5.76117E-001	1.15548E-001	0.00000E+000	5.77000E-001	-8.92214E-005	11	...........	-327.56
	9349	4675	6.00173E-001	1.05538E-001	0.00000E+000	6.01000E-001	-9.17548E-005	11	...........	-327.56
	9373	4687	6.24149E-001	9.64401E-002	0.00000E+000	6.25000E-001	-9.03881E-005	11	...........	-327.56
	9397	4699	6.48158E-001	8.80694E-002	0.00000E+000	6.49000E-001	-9.47548E-005	11	...........	-327.56
	9421	4711	6.72120E-001	8.06670E-002	0.00000E+000	6.73000E-001	-9.21548E-005	11	...........	-327.56
	9445	4723	6.96118E-001	7.42789E-002	0.00000E+000	6.97000E-001	-9.23881E-005	11	...........	-327.56
	9469	4735	7.20067E-001	6.93186E-002	0.00000E+000	7.21000E-001	-9.15881E-005	11	...........	-327.56
	9493	4747	7.44036E-001	6.52517E-002	0.00000E+000	7.45000E-001	-9.38214E-005	11	...........	-327.56
	9517	4759	7.68002E-001	6.20546E-002	0.00000E+000	7.69000E-001	-9.19214E-005	11	...........	-327.56
	9541	4771	7.91977E-001	5.92414E-002	0.00000E+000	7.93000E-001	-9.15881E-005	11	...........	-327.56
	9565	4783	8.15979E-001	5.71794E-002	0.00000E+000	8.17000E-001	-9.06548E-005	11	...........	-327.56
	9589	4795	8.39948E-001	5.51686E-002	0.00000E+000	8.41000E-001	-9.49214E-005	11	...........	-327.56
	9613	4807	8.63938E-001	5.36823E-002	0.00000E+000	8.65000E-001	-8.98214E-005	11	...........	-327.56
	9637	4819	8.87930E-001	5.27917E-002	0.00000E+000	8.89000E-001	-9.29548E-005	11	...........	-327.56
	9661	4831	9.11916E-001	5.22673E-002	0.00000E+000	9.13000E-001	-8.94881E-005	11	...........	-327.56
	9685	4843	9.35892E-001	5.13993E-002	0.00000E+000	9.37000E-001	-9.09214E-005	11	...........	-327.56
	9709	4855	9.59867E-001	5.10642E-002	0.00000E+000	9.61000E-001	-8.96214E-005	11	...........	-327.56
	9733	4867	9.83862E-001	5.10269E-002	0.00000E+000	9.85000E-001	-9.17214E-005	11	...........	-327.56
	9757	4879	1.00785E+000	5.19031E-002	0.00000E+000	1.00900E+000	-8.92881E-005	11	...........	-327.56
	9781	4891	1.03181E+000	5.52093E-002	0.00000E+000	1.03300E+000	-9.16881E-005	11	...........	-327.56
	9805	4903	1.05579E+000	6.22450E-002	0.00000E+000	1.05700E+000	-8.65881E-005	11	...........	-327.56
	9829	4915	1.07974E+000	7.51301E-002	0.00000E+000	1.08100E+000	-9.09214E-005	11	...........	-327.56
	9853	4927	1.10366E+000	9.43365E-002	0.00000E+000	1.10500E+000	-8.85214E-005	11	...........	-327.56
	9877	4939	1.12756E+000	1.15571E-001	0.00000E+000	1.12900E+000	-9.16881E-005	11	...........	-327.56
	9901	4951	1.15149E+000	1.38279E-001	0.00000E+000	1.15300E+000	-9.05881E-005	11	...........	-327.56
	9925	4963	1.17544E+000	1.62998E-001	0.00000E+000	1.17700E+000	-9.12881E-005	11	...........	-327.56
	9949	4975	1.19936E+000	1.91871E-001	0.00000E+000	1.20100E+000	-8.94214E-005	11	...........	-327.56
	9973	4987	1.22331E+000	2.23063E-001	0.00000E+000	1.22500E+000	-9.06881E-005	11	...........	-327.56
	9997	4999	1.24723E+000	2.56144E-001	0.00000E+000	1.24900E+000	-8.84881E-005	11	...........	-327.56
	10021	5011	1.27144E+000	2.93890E-001	0.00000E+000	1.27300E+000	-8.98881E-005	12	...........	-327.56
	10045	5023	1.29541E+000	3.35257E-001	0.00000E+000	1.29700E+000	-8.64214E-005	12	...........	-327.56
	10069	5035	1.31933E+000	3.80471E-001	0.00000E+000	1.32100E+000	-9.50214E-005	12	...........	-327.56
	10093	5047	1.34334E+000	4.27241E-001	0.00000E+000	1.34500E+000	-9.07214E-005	12	...........	-327.56
	10117	5059	1.36729E+000	4.78502E-001	0.00000E+000	1.36900E+000	-9.36214E-005	12	...........	-327.56
	10141	5071	1.39122E+000	5.33093E-001	0.00000E+000	1.39300E+000	-9.37881E-005	12	...........	-327.56
	10165	5083	1.41518E+000	5.94174E-001	0.00000E+000	1.41700E+000	-8.92214E-005	12	...........	-327.56
	10189	5095	1.43912E+000	6.52865E-001	0.00000E+000	1.44100E+000	-8.98881E-005	12	...........	-327.56
	10213	5107	1.46305E+000	7.10312E-001	0.00000E+000	1.46500E+000	-8.44214E-005	12	...........	-327.56
	10237	5119	1.48698E+000	7.74939E-001	0.00000E+000	1.48900E+000	-9.06548E-005	12	...........	-327.56
	10261	5131	1.51091E+000	8.34188E-001	0.00000E+000	1.51300E+000	-9.04881E-005	12	...........	-327.56
	10285	5143	1.53484E+000	9.01951E-001	0.00000E+000	1.53700E+000	-9.15214E-005	12	...........	-327.56
	10309	5155	1.55874E+000	9.60630E-001	0.00000E+000	1.56100E+000	-8.78881E-005	12	...........	-327.56
	10333	5167	1.58270E+000	1.01755E+000	0.00000E+000	1.58500E+000	-8.89214E-005	12	...........	-327.56
	10357	5179	1.60663E+000	1.08161E+000	0.00000E+000	1.60900E+000	-8.87548E-005	12	...........	-327.56
	10381	5191	1.63056E+000	1.14026E+000	0.00000E+000	1.63300E+000	-9.03214E-005	12	...........	-327.56
	10405	5203	1.65448E+000	1.20064E+000	0.00000E+000	1.65700E+000	-9.03214E-005	12	...........	-327.56
	10429	5215	1.67839E+000	1.26053E+000	0.00000E+000	1.68100E+000	-9.15881E-005	12	...........	-327.56
	10448	5224.5	1.69751E+000	1.31438E+000	0.00000E+000	1.70000E+000	-8.94214E-005	12	...........	-327.56