File: testing/data/240902_21_MCL13_cspWE_CV2_750C_CO2.DTA
EXPLAIN
TAG	CV
TITLE	LABEL	Cyclic Voltammetry	Test Identifier
DATE	LABEL	9/3/2024	Date
TIME	LABEL	21:04:05	Time
NOTES	NOTES	5	Notes...
	cswWE - carbon steel wire
cspWE - carbon steel plate 2x2 tapered

Carbon steel plate counter electrode
Carbon steel wire reference electrode
PSTAT	PSTAT	REF3000-48128	Potentiostat
VINIT	POTEN	0.00000E+000	T	Initial E (V)
VLIMIT1	POTEN	1.70000E+000	F	Scan Limit 1 (V)
VLIMIT2	POTEN	-1.00000E+000	F	Scan Limit 2 (V)
VFINAL	POTEN	1.70000E+000	F	Final E (V)
SCANRATE	QUANT	2.00000E+000	Scan Rate (mV/s)
STEPSIZE	QUANT	1.00000E+000	Step Size (mV)
CYCLES	IQUANT	2	Cycles (#)
IMODE	SELECTOR	0	I/E Range Mode
IRANGE	QUANT	3.00000E-001	Max Current (mA)
AREA	QUANT	1.00000E+000	Sample Area (cm^2)
EQDELAY	QUANT	0.00000E+000	Equil. Time (s)
IRCOMP	SELECTOR	0	IRComp
PFCOR	QUANT	5.00000E+001	PF Corr. (ohm)
SAMPLINGMODE	SELECTOR	1	Sampling Mode
EOC	QUANT	0.4463651	Open Circuit (V)
ELECTRODETYPE	SELECTOR	0	Electrode Type
STRIPPING	TOGGLE	F	Used for Stripping
SEQUENCER	TOGGLE	TRUE	Run as Sequence
PSTATMODEL	IQUANT	5	Pstat Model
PSTATSECTION	LABEL	REF3000-48128	Pstat Section
PSTATSERIALNO	LABEL	48128	Pstat Serial Number
CTRLMODE	IQUANT	1	Control Mode
ELECTROMETER	IQUANT	0	RE=0 or CS=1
IESTAB	IQUANT	2	I/E Stability
CASPEED	IQUANT	4	Control Amp Speed
CONVENTION	IQUANT	1	Current Convention
ICHRANGE	IQUANT	2	Ich Range
ICHRANGEMODE	TOGGLE	F	Ich Auto Range
ICHOFFSETENABLE	TOGGLE	F	Ich Offset Enable
ICHOFFSET	QUANT	0	Ich Offset (V)
ICHFILTER	IQUANT	3	Ich Filter
VCHRANGE	IQUANT	2	Vch Range
VCHRANGEMODE	TOGGLE	F	Vch Auto Range
VCHOFFSETENABLE	TOGGLE	F	Vch Offset Enable
VCHOFFSET	QUANT	0	Vch Offset (V)
VCHFILTER	IQUANT	3	Vch Filter
ACHRANGE	IQUANT	2	Ach Range
ACHOFFSETENABLE	TOGGLE	F	Ach Offset Enable
ACHOFFSET	QUANT	0	Ach Offset (V)
ACHFILTER	IQUANT	1	Ach Filter
IERANGELOWERLIMIT	IQUANT	2	I/E Range Lower Limit
IERANGEMODE	TOGGLE	T	I/E AutoRange
IERANGE	IQUANT	9	I/E Range
POSFEEDENABLE	TOGGLE	F	Positive Feedback IR Comp
POSFEEDRESISTANCE	QUANT	0	Positive Feedback Resistance (ohm)
ACHSELECT	IQUANT	4	Ach Select
SENSECABLEID	IQUANT	14	Sense Cable ID
PWRCABLEID	IQUANT	7	Power Cable ID
DCCALDATE	LABEL	8/16/2024	DC Calibration Date
ACCALDATE	LABEL	8/16/2024	AC Calibration Date
THERMOSELECT	IQUANT	1	Thermo Select
FRAMEWORKVERSION	LABEL	7.10.3	Framework Version
INSTRUMENTVERSION	LABEL	4.91	Instrument Version
COMMVERSION	LABEL	5.10	Communications Version
CPUPLDVERSION	LABEL	6.00	CPU PLD Version
CTRLPLDVERSION	LABEL	3.21	CTRL PLD Version
PSTATPLDVERSION	LABEL	0.00	PSTAT PLD Version
COMPLIANCEVOLTAGE	IQUANT	0	Compliance Voltage
CURVE1	TABLE
	Pt	T	Vf	Im	Vu	Sig	Ach	IERange	Over	Temp
	#	s	V vs. Ref.	A	V	V	V	#	bits	deg C
	0	0.5	4.45541E-001	2.78202E-003	0.00000E+000	4.46350E-001	-1.05155E-004	9	...........	-327.56
	40	20.5	4.85725E-001	5.55635E-002	0.00000E+000	4.86350E-001	-1.11555E-004	11	...........	-327.56
	80	40.5	5.25540E-001	8.29195E-002	0.00000E+000	5.26350E-001	-1.20488E-004	11	...........	-327.56
	120	60.5	5.65572E-001	1.00076E-001	0.00000E+000	5.66350E-001	-1.19821E-004	11	...........	-327.56
	160	80.5	6.05482E-001	1.13699E-001	0.00000E+000	6.06350E-001	-1.17588E-004	11	...........	-327.56
	200	100.5	6.45504E-001	1.20388E-001	0.00000E+000	6.46350E-001	-1.17688E-004	11	...........	-327.56
	240	120.5	6.85412E-001	1.19479E-001	0.00000E+000	6.86350E-001	-1.17221E-004	11	...........	-327.56
	280	140.5	7.25432E-001	1.12145E-001	0.00000E+000	7.26350E-001	-1.19021E-004	11	...........	-327.56
	320	160.5	7.65372E-001	1.02841E-001	0.00000E+000	7.66350E-001	-1.23388E-004	11	...........	-327.56
	360	180.5	8.05420E-001	9.48377E-002	0.00000E+000	8.06350E-001	-1.17121E-004	11	...........	-327.56
	400	200.5	8.45328E-001	8.99727E-002	0.00000E+000	8.46350E-001	-1.19221E-004	11	...........	-327.56
	440	220.5	8.85229E-001	8.70960E-002	0.00000E+000	8.86350E-001	-1.17855E-004	11	...........	-327.56
	480	240.5	9.25249E-001	8.69650E-002	0.00000E+000	9.26350E-001	-1.14121E-004	11	...........	-327.56
	520	260.5	9.65176E-001	9.10853E-002	0.00000E+000	9.66350E-001	-1.17988E-004	11	...........	-327.56
	560	280.5	1.00519E+000	1.00977E-001	0.00000E+000	1.00635E+000	-1.19288E-004	11	...........	-327.56
	600	300.5	1.04506E+000	1.20937E-001	0.00000E+000	1.04635E+000	-1.17288E-004	11	...........	-327.56
	640	320.5	1.08504E+000	1.55457E-001	0.00000E+000	1.08635E+000	-1.14855E-004	11	...........	-327.56
	680	340.5	1.12489E+000	2.03564E-001	0.00000E+000	1.12635E+000	-1.16988E-004	11	...........	-327.56
	720	360.5	1.16476E+000	2.52047E-001	0.00000E+000	1.16635E+000	-1.14055E-004	11	...........	-327.56
	760	380.5	1.20496E+000	3.11743E-001	0.00000E+000	1.20635E+000	-1.22855E-004	12	...........	-327.56
	800	400.5	1.24484E+000	3.83166E-001	0.00000E+000	1.24635E+000	-1.22388E-004	12	...........	-327.56
	840	420.5	1.28481E+000	4.78956E-001	0.00000E+000	1.28635E+000	-1.21055E-004	12	...........	-327.56
	880	440.5	1.32472E+000	6.07512E-001	0.00000E+000	1.32635E+000	-1.20755E-004	12	...........	-327.56
	920	460.5	1.36456E+000	7.52463E-001	0.00000E+000	1.36635E+000	-1.17788E-004	12	...........	-327.56
	960	480.5	1.40438E+000	9.09992E-001	0.00000E+000	1.40635E+000	-1.20888E-004	12	...........	-327.56
	1000	500.5	1.44430E+000	1.05660E+000	0.00000E+000	1.44635E+000	-1.22121E-004	12	...........	-327.56
	1040	520.5	1.48418E+000	1.20281E+000	0.00000E+000	1.48635E+000	-1.23555E-004	12	...........	-327.56
	1080	540.5	1.52402E+000	1.34867E+000	0.00000E+000	1.52635E+000	-1.23188E-004	12	...........	-327.56
	1120	560.5	1.56397E+000	1.48455E+000	0.00000E+000	1.56635E+000	-1.15121E-004	12	...........	-327.56
	1160	580.5	1.60384E+000	1.62959E+000	0.00000E+000	1.60635E+000	-1.16921E-004	12	...........	-327.56
	1200	600.5	1.64382E+000	1.79043E+000	0.00000E+000	1.64635E+000	-1.16321E-004	12	...........	-327.56
	1240	620.5	1.68372E+000	1.92852E+000	0.00000E+000	1.68635E+000	-1.20288E-004	12	...........	-327.56
	1280	640.5	1.67181E+000	1.89240E+000	0.00000E+000	1.67435E+000	-1.17155E-004	12	...........	-327.56
	1320	660.5	1.63188E+000	1.80426E+000	0.00000E+000	1.63435E+000	-1.20188E-004	12	...........	-327.56
	1360	680.5	1.59193E+000	1.68922E+000	0.00000E+000	1.59435E+000	-1.19555E-004	12	...........	-327.56
	1400	700.5	1.55194E+000	1.56762E+000	0.00000E+000	1.55435E+000	-1.19288E-004	12	...........	-327.56
	1440	720.5	1.51204E+000	1.45454E+000	0.00000E+000	1.51435E+000	-1.24221E-004	12	...........	-327.56
	1480	740.5	1.47211E+000	1.32697E+000	0.00000E+000	1.47435E+000	-1.22188E-004	12	...........	-327.56
	1520	760.5	1.43221E+000	1.21030E+000	0.00000E+000	1.43435E+000	-1.19121E-004	12	...........	-327.56
	1560	780.5	1.39233E+000	1.09460E+000	0.00000E+000	1.39435E+000	-1.18921E-004	12	...........	-327.56
	1600	800.5	1.35237E+000	9.65355E-001	0.00000E+000	1.35435E+000	-1.19255E-004	12	...........	-327.56
	1640	820.5	1.31256E+000	8.55852E-001	0.00000E+000	1.31435E+000	-1.16355E-004	12	...........	-327.56
	1680	840.5	1.27261E+000	7.32766E-001	0.00000E+000	1.27435E+000	-1.15755E-004	12	...........	-327.56
	1720	860.5	1.23276E+000	6.07133E-001	0.00000E+000	1.23435E+000	-1.14888E-004	12	...........	-327.56
	1760	880.5	1.19277E+000	4.92547E-001	0.00000E+000	1.19435E+000	-1.20088E-004	12	...........	-327.56
	1800	900.5	1.15295E+000	3.69074E-001	0.00000E+000	1.15435E+000	-1.14455E-004	12	...........	-327.56
	1840	920.5	1.11308E+000	2.62696E-001	0.00000E+000	1.11435E+000	-1.17521E-004	12	...........	-327.56
	1880	940.5	1.07297E+000	1.77127E-001	0.00000E+000	1.07435E+000	-1.15355E-004	11	...........	-327.56
	1920	960.5	1.03311E+000	1.15195E-001	0.00000E+000	1.03435E+000	-1.14388E-004	11	...........	-327.56
	1960	980.5	9.93165E-001	7.64617E-002	0.00000E+000	9.94350E-001	-1.13088E-004	11	...........	-327.56
	2000	1000.5	9.53280E-001	5.83461E-002	0.00000E+000	9.54350E-001	-1.15655E-004	11	...........	-327.56
	2040	1020.5	9.13306E-001	5.06251E-002	0.00000E+000	9.14350E-001	-1.17155E-004	11	...........	-327.56
	2080	1040.5	8.73387E-001	4.80193E-002	0.00000E+000	8.74350E-001	-1.13421E-004	11	...........	-327.56
	2120	1060.5	8.33398E-001	4.78559E-002	0.00000E+000	8.34350E-001	-1.15288E-004	11	...........	-327.56
	2160	1080.5	7.93477E-001	4.70957E-002	0.00000E+000	7.94350E-001	-1.17355E-004	11	...........	-327.56
	2200	1100.5	7.53522E-001	4.55088E-002	0.00000E+000	7.54350E-001	-1.18288E-004	11	...........	-327.56
	2240	1120.5	7.13544E-001	4.35222E-002	0.00000E+000	7.14350E-001	-1.18455E-004	11	...........	-327.56
	2280	1140.5	6.73599E-001	3.92622E-002	0.00000E+000	6.74350E-001	-1.18821E-004	11	...........	-327.56
	2320	1160.5	6.33589E-001	3.46149E-002	0.00000E+000	6.34350E-001	-1.16555E-004	11	...........	-327.56
	2360	1180.5	5.93694E-001	2.89537E-002	0.00000E+000	5.94350E-001	-1.16588E-004	11	...........	-327.56
	2400	1200.5	5.53492E-001	2.14725E-002	0.00000E+000	5.54350E-001	-1.14321E-004	10	...........	-327.56
	2440	1220.5	5.13610E-001	1.17137E-002	0.00000E+000	5.14350E-001	-1.14255E-004	10	...........	-327.56
	2480	1240.5	4.73702E-001	1.00629E-003	0.00000E+000	4.74350E-001	-1.16521E-004	9	...........	-327.56
	2520	1260.5	4.33981E-001	-1.11045E-002	0.00000E+000	4.34350E-001	-1.16488E-004	10	...........	-327.56
	2560	1280.5	3.94222E-001	-2.42439E-002	0.00000E+000	3.94350E-001	-1.07321E-004	10	...........	-327.56
	2600	1300.5	3.53928E-001	-3.45093E-002	0.00000E+000	3.54350E-001	-1.18055E-004	11	...........	-327.56
	2640	1320.5	3.14029E-001	-4.66930E-002	0.00000E+000	3.14350E-001	-1.15888E-004	11	...........	-327.56
	2680	1340.5	2.74042E-001	-5.94192E-002	0.00000E+000	2.74350E-001	-1.17188E-004	11	...........	-327.56
	2720	1360.5	2.34159E-001	-7.20727E-002	0.00000E+000	2.34350E-001	-1.15255E-004	11	...........	-327.56
	2760	1380.5	1.94127E-001	-7.81244E-002	0.00000E+000	1.94350E-001	-1.15555E-004	11	...........	-327.56
	2800	1400.5	1.54218E-001	-8.78546E-002	0.00000E+000	1.54350E-001	-1.13588E-004	11	...........	-327.56
	2840	1420.5	1.14306E-001	-1.01893E-001	0.00000E+000	1.14350E-001	-1.15421E-004	11	...........	-327.56
	2880	1440.5	7.43331E-002	-1.15670E-001	0.00000E+000	7.43500E-002	-1.12555E-004	11	...........	-327.56
	2920	1460.5	3.44402E-002	-1.28395E-001	0.00000E+000	3.43500E-002	-1.16021E-004	11	...........	-327.56
	2960	1480.5	-5.37724E-003	-1.23456E-001	0.00000E+000	-5.64995E-003	-1.18421E-004	11	...........	-327.56
	3000	1500.5	-4.53653E-002	-1.00195E-001	0.00000E+000	-4.56500E-002	-1.17955E-004	11	...........	-327.56
	3040	1520.5	-8.54042E-002	-8.56124E-002	0.00000E+000	-8.56500E-002	-1.20288E-004	11	...........	-327.56
	3080	1540.5	-1.25316E-001	-7.96426E-002	0.00000E+000	-1.25650E-001	-1.18488E-004	11	...........	-327.56
	3120	1560.5	-1.65380E-001	-7.78928E-002	0.00000E+000	-1.65650E-001	-1.18888E-004	11	...........	-327.56
	3160	1580.5	-2.05277E-001	-7.89908E-002	0.00000E+000	-2.05650E-001	-1.17555E-004	11	...........	-327.56
	3200	1600.5	-2.45210E-001	-8.54027E-002	0.00000E+000	-2.45650E-001	-1.17755E-004	11	...........	-327.56
	3240	1620.5	-2.85203E-001	-9.58008E-002	0.00000E+000	-2.85650E-001	-1.14621E-004	11	...........	-327.56
	3280	1640.5	-3.25060E-001	-1.09108E-001	0.00000E+000	-3.25650E-001	-1.14521E-004	11	...........	-327.56
	3320	1660.5	-3.65027E-001	-1.33191E-001	0.00000E+000	-3.65650E-001	-1.20721E-004	11	...........	-327.56
	3360	1680.5	-4.04926E-001	-1.61652E-001	0.00000E+000	-4.05650E-001	-1.13788E-004	11	...........	-327.56
	3400	1700.5	-4.44866E-001	-2.23954E-001	0.00000E+000	-4.45650E-001	-1.06155E-004	11	...........	-327.56
	3440	1720.5	-4.84974E-001	-3.04620E-001	0.00000E+000	-4.85650E-001	-1.18721E-004	12	...........	-327.56
	3480	1740.5	-5.24867E-001	-3.90787E-001	0.00000E+000	-5.25650E-001	-1.19321E-004	12	...........	-327.56
	3520	1760.5	-5.64827E-001	-4.76137E-001	0.00000E+000	-5.65650E-001	-1.19521E-004	12	...........	-327.56
	3560	1780.5	-6.04699E-001	-5.69213E-001	0.00000E+000	-6.05650E-001	-1.19055E-004	12	...........	-327.56
	3600	1800.5	-6.44627E-001	-6.61738E-001	0.00000E+000	-6.45650E-001	-1.16688E-004	12	...........	-327.56
	3640	1820.5	-6.84508E-001	-7.55185E-001	0.00000E+000	-6.85650E-001	-1.16955E-004	12	...........	-327.56
	3680	1840.5	-7.24441E-001	-8.51639E-001	0.00000E+000	-7.25650E-001	-1.19721E-004	12	...........	-327.56
	3720	1860.5	-7.64293E-001	-9.50787E-001	0.00000E+000	-7.65650E-001	-1.13055E-004	12	...........	-327.56
	3760	1880.5	-8.04285E-001	-1.06670E+000	0.00000E+000	-8.05650E-001	-1.16955E-004	12	...........	-327.56
	3800	1900.5	-8.44116E-001	-1.16139E+000	0.00000E+000	-8.45650E-001	-1.10788E-004	12	...........	-327.56
	3840	1920.5	-8.84003E-001	-1.26500E+000	0.00000E+000	-8.85650E-001	-1.16088E-004	12	...........	-327.56
	3880	1940.5	-9.23926E-001	-1.37378E+000	0.00000E+000	-9.25650E-001	-1.14621E-004	12	...........	-327.56
	3920	1960.5	-9.63811E-001	-1.48670E+000	0.00000E+000	-9.65650E-001	-1.17388E-004	12	...........	-327.56
	3954	1977.5	-9.97768E-001	-1.58240E+000	0.00000E+000	-9.99650E-001	-1.08688E-004	12	...........	-327.56
CURVE2	TABLE
	Pt	T	Vf	Im	Vu	Sig	Ach	IERange	Over	Temp
	#	s	V vs. Ref.	A	V	V	V	#	bits	deg C
	3955	1978	-9.97123E-001	-1.57953E+000	0.00000E+000	-9.99000E-001	-1.14588E-004	12	...........	-327.56
	4011	2006	-9.41236E-001	-1.39053E+000	0.00000E+000	-9.43000E-001	-1.15555E-004	12	...........	-327.56
	4067	2034	-8.85397E-001	-1.20993E+000	0.00000E+000	-8.87000E-001	-1.15788E-004	12	...........	-327.56
	4123	2062	-8.29606E-001	-1.04028E+000	0.00000E+000	-8.31000E-001	-1.16188E-004	12	...........	-327.56
	4179	2090	-7.73736E-001	-8.76371E-001	0.00000E+000	-7.75000E-001	-1.15321E-004	12	...........	-327.56
	4235	2118	-7.17852E-001	-7.15792E-001	0.00000E+000	-7.19000E-001	-1.13021E-004	12	...........	-327.56
	4291	2146	-6.62012E-001	-5.57670E-001	0.00000E+000	-6.63000E-001	-1.16255E-004	12	...........	-327.56
	4347	2174	-6.06139E-001	-3.98258E-001	0.00000E+000	-6.07000E-001	-1.12288E-004	12	...........	-327.56
	4403	2202	-5.50318E-001	-2.48080E-001	0.00000E+000	-5.51000E-001	-1.17888E-004	12	...........	-327.56
	4459	2230	-4.94390E-001	-1.13917E-001	0.00000E+000	-4.95000E-001	-1.17321E-004	11	...........	-327.56
	4515	2258	-4.38681E-001	8.44445E-003	0.00000E+000	-4.39000E-001	-1.15188E-004	10	...........	-327.56
	4571	2286	-3.82790E-001	1.18553E-001	0.00000E+000	-3.83000E-001	-1.18421E-004	11	...........	-327.56
	4627	2314	-3.26945E-001	2.07034E-001	0.00000E+000	-3.27000E-001	-1.18121E-004	11	...........	-327.56
	4683	2342	-2.71105E-001	2.55898E-001	0.00000E+000	-2.71000E-001	-1.12488E-004	11	...........	-327.56
	4739	2370	-2.15232E-001	2.56085E-001	0.00000E+000	-2.15000E-001	-1.12955E-004	11	...........	-327.56
	4795	2398	-1.59274E-001	2.66550E-001	0.00000E+000	-1.59000E-001	-1.08988E-004	11	...........	-327.56
	4851	2426	-1.02993E-001	2.77166E-001	0.00000E+000	-1.03000E-001	-1.15688E-004	12	...........	-327.56
	4907	2454	-4.70658E-002	2.98449E-001	0.00000E+000	-4.70000E-002	-1.23555E-004	12	...........	-327.56
	4963	2482	8.69187E-003	2.95946E-001	0.00000E+000	9.00003E-003	-1.12421E-004	12	...........	-327.56
	5019	2510	6.45378E-002	3.54411E-001	0.00000E+000	6.50000E-002	-1.17421E-004	12	...........	-327.56
	5075	2538	1.20425E-001	4.41497E-001	0.00000E+000	1.21000E-001	-1.18655E-004	12	...........	-327.56
	5131	2566	1.76330E-001	5.66779E-001	0.00000E+000	1.77000E-001	-1.16521E-004	12	...........	-327.56
	5187	2594	2.32224E-001	7.11723E-001	0.00000E+000	2.33000E-001	-1.19988E-004	12	...........	-327.56
	5243	2622	2.88127E-001	8.53190E-001	0.00000E+000	2.89000E-001	-1.16555E-004	12	...........	-327.56
	5299	2650	3.43959E-001	9.86998E-001	0.00000E+000	3.45000E-001	-1.21955E-004	12	...........	-327.56
	5355	2678	3.99853E-001	1.11796E+000	0.00000E+000	4.01000E-001	-1.20588E-004	12	...........	-327.56
	5411	2706	4.55710E-001	1.25607E+000	0.00000E+000	4.57000E-001	-1.21388E-004	12	...........	-327.56
	5467	2734	5.11609E-001	1.39694E+000	0.00000E+000	5.13000E-001	-1.16721E-004	12	...........	-327.56
	5523	2762	5.67514E-001	1.53057E+000	0.00000E+000	5.69000E-001	-1.18488E-004	12	...........	-327.56
	5579	2790	6.23481E-001	1.51626E+000	0.00000E+000	6.25000E-001	-1.20488E-004	12	...........	-327.56
	5635	2818	6.79406E-001	1.37826E+000	0.00000E+000	6.81000E-001	-1.22688E-004	12	...........	-327.56
	5691	2846	7.35379E-001	1.37452E+000	0.00000E+000	7.37000E-001	-1.23055E-004	12	...........	-327.56
	5747	2874	7.91348E-001	1.42193E+000	0.00000E+000	7.93000E-001	-1.21421E-004	12	...........	-327.56
	5803	2902	8.47289E-001	1.42726E+000	0.00000E+000	8.49000E-001	-1.22388E-004	12	...........	-327.56
	5859	2930	9.03310E-001	1.34681E+000	0.00000E+000	9.05000E-001	-1.20488E-004	12	...........	-327.56
	5915	2958	9.59330E-001	1.12386E+000	0.00000E+000	9.61000E-001	-1.22388E-004	12	...........	-327.56
	5971	2986	1.01552E+000	6.42898E-001	0.00000E+000	1.01700E+000	-1.16821E-004	12	...........	-327.56
	6027	3014	1.07161E+000	4.41991E-001	0.00000E+000	1.07300E+000	-1.19988E-004	12	...........	-327.56
	6083	3042	1.12760E+000	3.99091E-001	0.00000E+000	1.12900E+000	-1.19721E-004	12	...........	-327.56
	6139	3070	1.18353E+000	4.47741E-001	0.00000E+000	1.18500E+000	-1.13155E-004	12	...........	-327.56
	6195	3098	1.23943E+000	5.57322E-001	0.00000E+000	1.24100E+000	-1.17021E-004	12	...........	-327.56
	6251	3126	1.29520E+000	7.44578E-001	0.00000E+000	1.29700E+000	-1.16455E-004	12	...........	-327.56
	6307	3154	1.35104E+000	9.13984E-001	0.00000E+000	1.35300E+000	-1.12055E-004	12	...........	-327.56
[...]
	9719	4860	-6.34057E-001	-5.17612E-001	0.00000E+000	-6.35000E-001	-1.16288E-004	12	...........	-327.56
	9747	4874	-6.06123E-001	-4.35574E-001	0.00000E+000	-6.07000E-001	-1.16121E-004	12	...........	-327.56
	9775	4888	-5.78206E-001	-3.55168E-001	0.00000E+000	-5.79000E-001	-1.18855E-004	12	...........	-327.56
	9803	4902	-5.50310E-001	-2.77384E-001	0.00000E+000	-5.51000E-001	-1.16088E-004	12	...........	-327.56
	9831	4916	-5.22173E-001	-2.04987E-001	0.00000E+000	-5.23000E-001	-1.08021E-004	11	...........	-327.56
	9859	4930	-4.94347E-001	-1.37534E-001	0.00000E+000	-4.95000E-001	-1.15055E-004	11	...........	-327.56
	9887	4944	-4.66465E-001	-7.03309E-002	0.00000E+000	-4.67000E-001	-1.14855E-004	11	...........	-327.56
	9915	4958	-4.38479E-001	-6.40223E-003	0.00000E+000	-4.39000E-001	-1.15688E-004	10	...........	-327.56
	9943	4972	-4.10671E-001	5.59856E-002	0.00000E+000	-4.11000E-001	-1.18421E-004	11	...........	-327.56
	9971	4986	-3.82788E-001	1.15708E-001	0.00000E+000	-3.83000E-001	-1.15921E-004	11	...........	-327.56
	9999	5000	-3.54878E-001	1.71754E-001	0.00000E+000	-3.55000E-001	-1.15055E-004	11	...........	-327.56
	10027	5014	-3.26970E-001	2.23490E-001	0.00000E+000	-3.27000E-001	-1.10788E-004	11	...........	-327.56
	10055	5028	-2.99110E-001	2.68905E-001	0.00000E+000	-2.99000E-001	-1.15221E-004	11	...........	-327.56
	10083	5042	-2.70898E-001	3.07649E-001	0.00000E+000	-2.71000E-001	-1.16121E-004	12	...........	-327.56
	10111	5056	-2.42999E-001	3.35881E-001	0.00000E+000	-2.43000E-001	-1.17788E-004	12	...........	-327.56
	10139	5070	-2.15002E-001	3.49740E-001	0.00000E+000	-2.15000E-001	-1.18488E-004	12	...........	-327.56
	10167	5084	-1.87019E-001	3.47609E-001	0.00000E+000	-1.87000E-001	-1.15388E-004	12	...........	-327.56
	10195	5098	-1.59011E-001	3.40168E-001	0.00000E+000	-1.59000E-001	-1.21721E-004	12	...........	-327.56
	10223	5112	-1.31032E-001	3.40807E-001	0.00000E+000	-1.31000E-001	-1.18921E-004	12	...........	-327.56
	10251	5126	-1.03042E-001	3.47113E-001	0.00000E+000	-1.03000E-001	-1.21255E-004	12	...........	-327.56
	10279	5140	-7.50755E-002	3.48954E-001	0.00000E+000	-7.50000E-002	-1.21521E-004	12	...........	-327.56
	10307	5154	-4.71088E-002	3.53060E-001	0.00000E+000	-4.70000E-002	-1.18788E-004	12	...........	-327.56
	10335	5168	-1.91273E-002	3.67373E-001	0.00000E+000	-1.90000E-002	-1.17655E-004	12	...........	-327.56
	10363	5182	8.65312E-003	3.76792E-001	0.00000E+000	9.00003E-003	-1.16488E-004	12	...........	-327.56
	10391	5196	3.66431E-002	3.83144E-001	0.00000E+000	3.70000E-002	-1.15188E-004	12	...........	-327.56
	10419	5210	6.45079E-002	3.99340E-001	0.00000E+000	6.50000E-002	-1.16755E-004	12	...........	-327.56
	10447	5224	9.25068E-002	4.31368E-001	0.00000E+000	9.30000E-002	-1.18088E-004	12	...........	-327.56
	10475	5238	1.20406E-001	4.74353E-001	0.00000E+000	1.21000E-001	-1.19288E-004	12	...........	-327.56
	10503	5252	1.48375E-001	5.20237E-001	0.00000E+000	1.49000E-001	-1.17088E-004	12	...........	-327.56
	10531	5266	1.76337E-001	5.70857E-001	0.00000E+000	1.77000E-001	-1.17021E-004	12	...........	-327.56
	10559	5280	2.04282E-001	6.31654E-001	0.00000E+000	2.05000E-001	-1.17355E-004	12	...........	-327.56
	10587	5294	2.32225E-001	7.01573E-001	0.00000E+000	2.33000E-001	-1.19055E-004	12	...........	-327.56
	10615	5308	2.60181E-001	7.71818E-001	0.00000E+000	2.61000E-001	-1.17688E-004	12	...........	-327.56
	10643	5322	2.88128E-001	8.40249E-001	0.00000E+000	2.89000E-001	-1.19621E-004	12	...........	-327.56
	10671	5336	3.16021E-001	9.06619E-001	0.00000E+000	3.17000E-001	-1.17855E-004	12	...........	-327.56
	10699	5350	3.43968E-001	9.71537E-001	0.00000E+000	3.45000E-001	-1.18055E-004	12	...........	-327.56
	10727	5364	3.71815E-001	1.03324E+000	0.00000E+000	3.73000E-001	-1.15488E-004	12	...........	-327.56
	10755	5378	3.99863E-001	1.09770E+000	0.00000E+000	4.01000E-001	-1.21421E-004	12	...........	-327.56
	10783	5392	4.27768E-001	1.16540E+000	0.00000E+000	4.29000E-001	-1.18321E-004	12	...........	-327.56
	10811	5406	4.55736E-001	1.23513E+000	0.00000E+000	4.57000E-001	-1.16955E-004	12	...........	-327.56
	10839	5420	4.83669E-001	1.30516E+000	0.00000E+000	4.85000E-001	-1.15821E-004	12	...........	-327.56
	10867	5434	5.11630E-001	1.37180E+000	0.00000E+000	5.13000E-001	-1.18288E-004	12	...........	-327.56
	10895	5448	5.39577E-001	1.43708E+000	0.00000E+000	5.41000E-001	-1.19721E-004	12	...........	-327.56
	10923	5462	5.67534E-001	1.49141E+000	0.00000E+000	5.69000E-001	-1.16788E-004	12	...........	-327.56
	10951	5476	5.95519E-001	1.50846E+000	0.00000E+000	5.97000E-001	-1.18455E-004	12	...........	-327.56
	10979	5490	6.23482E-001	1.48909E+000	0.00000E+000	6.25000E-001	-1.16921E-004	12	...........	-327.56
	11007	5504	6.51501E-001	1.44578E+000	0.00000E+000	6.53000E-001	-1.16655E-004	12	...........	-327.56
	11035	5518	6.79393E-001	1.42290E+000	0.00000E+000	6.81000E-001	-1.22288E-004	12	...........	-327.56
	11063	5532	7.07406E-001	1.42899E+000	0.00000E+000	7.09000E-001	-1.21721E-004	12	...........	-327.56
	11091	5546	7.35358E-001	1.45148E+000	0.00000E+000	7.37000E-001	-1.20721E-004	12	...........	-327.56
	11119	5560	7.63341E-001	1.48754E+000	0.00000E+000	7.65000E-001	-1.20521E-004	12	...........	-327.56
	11147	5574	7.91293E-001	1.53209E+000	0.00000E+000	7.93000E-001	-1.19921E-004	12	...........	-327.56
	11175	5588	8.19231E-001	1.57881E+000	0.00000E+000	8.21000E-001	-1.18555E-004	12	...........	-327.56
	11203	5602	8.47220E-001	1.62171E+000	0.00000E+000	8.49000E-001	-1.19255E-004	12	...........	-327.56
	11231	5616	8.75189E-001	1.63655E+000	0.00000E+000	8.77000E-001	-1.17355E-004	12	...........	-327.56
	11259	5630	9.03185E-001	1.63382E+000	0.00000E+000	9.05000E-001	-1.15221E-004	12	...........	-327.56
	11287	5644	9.31134E-001	1.63400E+000	0.00000E+000	9.33000E-001	-1.20121E-004	12	...........	-327.56
	11315	5658	9.59115E-001	1.61407E+000	0.00000E+000	9.61000E-001	-1.16155E-004	12	...........	-327.56
	11343	5672	9.87114E-001	1.55346E+000	0.00000E+000	9.89000E-001	-1.18121E-004	12	...........	-327.56
	11371	5686	1.01508E+000	1.45380E+000	0.00000E+000	1.01700E+000	-1.16621E-004	12	...........	-327.56
	11399	5700	1.04314E+000	1.28433E+000	0.00000E+000	1.04500E+000	-1.19155E-004	12	...........	-327.56
	11427	5714	1.07126E+000	9.85551E-001	0.00000E+000	1.07300E+000	-1.20488E-004	12	...........	-327.56
	11455	5728	1.09943E+000	7.14139E-001	0.00000E+000	1.10100E+000	-1.18355E-004	12	...........	-327.56
	11483	5742	1.12746E+000	6.05108E-001	0.00000E+000	1.12900E+000	-1.17921E-004	12	...........	-327.56
	11511	5756	1.15550E+000	5.53036E-001	0.00000E+000	1.15700E+000	-1.16055E-004	12	...........	-327.56
	11539	5770	1.18347E+000	5.42768E-001	0.00000E+000	1.18500E+000	-1.14488E-004	12	...........	-327.56
	11567	5784	1.21145E+000	5.63497E-001	0.00000E+000	1.21300E+000	-1.14055E-004	12	...........	-327.56
	11595	5798	1.23940E+000	6.15810E-001	0.00000E+000	1.24100E+000	-1.19188E-004	12	...........	-327.56
	11623	5812	1.26729E+000	7.04222E-001	0.00000E+000	1.26900E+000	-1.16821E-004	12	...........	-327.56
	11651	5826	1.29517E+000	7.78718E-001	0.00000E+000	1.29700E+000	-1.14788E-004	12	...........	-327.56
	11679	5840	1.32314E+000	8.65680E-001	0.00000E+000	1.32500E+000	-1.16055E-004	12	...........	-327.56
	11707	5854	1.35102E+000	9.39434E-001	0.00000E+000	1.35300E+000	-1.18288E-004	12	...........	-327.56
	11735	5868	1.37898E+000	1.06756E+000	0.00000E+000	1.38100E+000	-1.17355E-004	12	...........	-327.56
	11763	5882	1.40691E+000	1.10131E+000	0.00000E+000	1.40900E+000	-1.12755E-004	12	...........	-327.56
	11791	5896	1.43480E+000	1.27813E+000	0.00000E+000	1.43700E+000	-1.17421E-004	12	...........	-327.56
	11819	5910	1.46280E+000	1.32177E+000	0.00000E+000	1.46500E+000	-1.12588E-004	12	...........	-327.56
	11847	5924	1.49070E+000	1.44447E+000	0.00000E+000	1.49300E+000	-1.13621E-004	12	...........	-327.56
	11875	5938	1.51868E+000	1.51670E+000	0.00000E+000	1.52100E+000	-1.14955E-004	12	...........	-327.56
	11903	5952	1.54658E+000	1.60380E+000	0.00000E+000	1.54900E+000	-1.14688E-004	12	...........	-327.56
	11931	5966	1.57450E+000	1.69755E+000	0.00000E+000	1.57700E+000	-1.17288E-004	12	...........	-327.56
	11959	5980	1.60241E+000	1.80530E+000	0.00000E+000	1.60500E+000	-1.16121E-004	12	...........	-327.56
	11987	5994	1.63037E+000	1.92727E+000	0.00000E+000	1.63300E+000	-1.14488E-004	12	...........	-327.56
	12015	6008	1.65834E+000	2.04689E+000	0.00000E+000	1.66100E+000	-1.10488E-004	12	...........	-327.56
	12043	6022	1.68635E+000	2.14580E+000	0.00000E+000	1.68900E+000	-1.12521E-004	12	...........	-327.56
	12054	6027.5	1.69739E+000	2.18811E+000	0.00000E+000	1.70000E+000	-1.13821E-004	12	...........	-327.56