File: testing/data/240902_08_MCL13_cswWE_CV2_750C_CO2.DTA
EXPLAIN
TAG	CV
TITLE	LABEL	Cyclic Voltammetry	Test Identifier
DATE	LABEL	9/3/2024	Date
TIME	LABEL	0:23:34	Time
NOTES	NOTES	5	Notes...
	cswWE - carbon steel wire
cspWE - carbon steel plate 2x2 tapered

Carbon steel plate counter electrode
Carbon steel wire reference electrode
PSTAT	PSTAT	REF3000-48128	Potentiostat
VINIT	POTEN	0.00000E+000	T	Initial E (V)
VLIMIT1	POTEN	1.70000E+000	F	Scan Limit 1 (V)
VLIMIT2	POTEN	-1.10000E+000	F	Scan Limit 2 (V)
VFINAL	POTEN	1.70000E+000	F	Final E (V)
SCANRATE	QUANT	2.00000E+000	Scan Rate (mV/s)
STEPSIZE	QUANT	1.00000E+000	Step Size (mV)
CYCLES	IQUANT	2	Cycles (#)
IMODE	SELECTOR	0	I/E Range Mode
IRANGE	QUANT	3.00000E-001	Max Current (mA)
AREA	QUANT	1.00000E+000	Sample Area (cm^2)
EQDELAY	QUANT	0.00000E+000	Equil. Time (s)
IRCOMP	SELECTOR	0	IRComp
PFCOR	QUANT	5.00000E+001	PF Corr. (ohm)
SAMPLINGMODE	SELECTOR	1	Sampling Mode
EOC	QUANT	0.1612323	Open Circuit (V)
ELECTRODETYPE	SELECTOR	0	Electrode Type
STRIPPING	TOGGLE	F	Used for Stripping
SEQUENCER	TOGGLE	TRUE	Run as Sequence
PSTATMODEL	IQUANT	5	Pstat Model
PSTATSECTION	LABEL	REF3000-48128	Pstat Section
PSTATSERIALNO	LABEL	48128	Pstat Serial Number
CTRLMODE	IQUANT	1	Control Mode
ELECTROMETER	IQUANT	0	RE=0 or CS=1
IESTAB	IQUANT	2	I/E Stability
CASPEED	IQUANT	4	Control Amp Speed
CONVENTION	IQUANT	1	Current Convention
ICHRANGE	IQUANT	2	Ich Range
ICHRANGEMODE	TOGGLE	F	Ich Auto Range
ICHOFFSETENABLE	TOGGLE	F	Ich Offset Enable
ICHOFFSET	QUANT	0	Ich Offset (V)
ICHFILTER	IQUANT	3	Ich Filter
VCHRANGE	IQUANT	2	Vch Range
VCHRANGEMODE	TOGGLE	F	Vch Auto Range
VCHOFFSETENABLE	TOGGLE	F	Vch Offset Enable
VCHOFFSET	QUANT	0	Vch Offset (V)
VCHFILTER	IQUANT	3	Vch Filter
ACHRANGE	IQUANT	2	Ach Range
ACHOFFSETENABLE	TOGGLE	F	Ach Offset Enable
ACHOFFSET	QUANT	0	Ach Offset (V)
ACHFILTER	IQUANT	1	Ach Filter
IERANGELOWERLIMIT	IQUANT	2	I/E Range Lower Limit
IERANGEMODE	TOGGLE	T	I/E AutoRange
IERANGE	IQUANT	9	I/E Range
POSFEEDENABLE	TOGGLE	F	Positive Feedback IR Comp
POSFEEDRESISTANCE	QUANT	0	Positive Feedback Resistance (ohm)
ACHSELECT	IQUANT	4	Ach Select
SENSECABLEID	IQUANT	14	Sense Cable ID
PWRCABLEID	IQUANT	7	Power Cable ID
DCCALDATE	LABEL	8/16/2024	DC Calibration Date
ACCALDATE	LABEL	8/16/2024	AC Calibration Date
THERMOSELECT	IQUANT	1	Thermo Select
FRAMEWORKVERSION	LABEL	7.10.3	Framework Version
INSTRUMENTVERSION	LABEL	4.91	Instrument Version
COMMVERSION	LABEL	5.10	Communications Version
CPUPLDVERSION	LABEL	6.00	CPU PLD Version
CTRLPLDVERSION	LABEL	3.21	CTRL PLD Version
PSTATPLDVERSION	LABEL	0.00	PSTAT PLD Version
COMPLIANCEVOLTAGE	IQUANT	0	Compliance Voltage
CURVE1	TABLE
	Pt	T	Vf	Im	Vu	Sig	Ach	IERange	Over	Temp
	#	s	V vs. Ref.	A	V	V	V	#	bits	deg C
	0	0.5	1.60894E-001	9.61789E-004	0.00000E+000	1.61250E-001	-1.01288E-004	9	...........	-327.56
	44	22.5	2.04769E-001	1.28645E-002	0.00000E+000	2.05250E-001	-1.08355E-004	10	...........	-327.56
	88	44.5	2.48614E-001	2.15995E-002	0.00000E+000	2.49250E-001	-1.03221E-004	10	...........	-327.56
	132	66.5	2.92858E-001	3.05232E-002	0.00000E+000	2.93250E-001	-1.08355E-004	11	...........	-327.56
	176	88.5	3.36758E-001	4.01696E-002	0.00000E+000	3.37250E-001	-1.05855E-004	11	...........	-327.56
	220	110.5	3.80736E-001	2.89957E-002	0.00000E+000	3.81250E-001	-1.09955E-004	11	...........	-327.56
	264	132.5	4.24446E-001	1.96305E-002	0.00000E+000	4.25250E-001	-1.09188E-004	10	...........	-327.56
	308	154.5	4.68532E-001	1.80164E-002	0.00000E+000	4.69250E-001	-1.03455E-004	10	...........	-327.56
	352	176.5	5.12401E-001	1.92315E-002	0.00000E+000	5.13250E-001	-1.05955E-004	10	...........	-327.56
	396	198.5	5.56355E-001	1.98042E-002	0.00000E+000	5.57250E-001	-1.03221E-004	10	...........	-327.56
	440	220.5	6.00384E-001	1.98352E-002	0.00000E+000	6.01250E-001	-1.06021E-004	10	...........	-327.56
	484	242.5	6.44325E-001	1.96805E-002	0.00000E+000	6.45250E-001	-1.04221E-004	10	...........	-327.56
	528	264.5	6.88258E-001	1.94529E-002	0.00000E+000	6.89250E-001	-1.03955E-004	10	...........	-327.56
	572	286.5	7.32175E-001	1.85165E-002	0.00000E+000	7.33250E-001	-1.06488E-004	10	...........	-327.56
	616	308.5	7.76248E-001	1.77237E-002	0.00000E+000	7.77250E-001	-1.01288E-004	10	...........	-327.56
	660	330.5	8.20164E-001	1.67402E-002	0.00000E+000	8.21250E-001	-1.07121E-004	10	...........	-327.56
	704	352.5	8.64122E-001	1.63155E-002	0.00000E+000	8.65250E-001	-1.06155E-004	10	...........	-327.56
	748	374.5	9.08115E-001	1.67208E-002	0.00000E+000	9.09250E-001	-1.07321E-004	10	...........	-327.56
	792	396.5	9.52025E-001	1.82485E-002	0.00000E+000	9.53250E-001	-1.02388E-004	10	...........	-327.56
	836	418.5	9.95864E-001	2.52849E-002	0.00000E+000	9.97250E-001	-1.03321E-004	10	...........	-327.56
	880	440.5	1.04006E+000	3.45992E-002	0.00000E+000	1.04125E+000	-1.05821E-004	11	...........	-327.56
	924	462.5	1.08409E+000	4.31818E-002	0.00000E+000	1.08525E+000	-1.07021E-004	11	...........	-327.56
	968	484.5	1.12798E+000	4.22767E-002	0.00000E+000	1.12925E+000	-1.09188E-004	11	...........	-327.56
	1012	506.5	1.17195E+000	3.32032E-002	0.00000E+000	1.17325E+000	-1.06788E-004	11	...........	-327.56
	1056	528.5	1.21595E+000	4.58516E-002	0.00000E+000	1.21725E+000	-1.06021E-004	11	...........	-327.56
	1100	550.5	1.25989E+000	7.74227E-002	0.00000E+000	1.26125E+000	-1.03121E-004	11	...........	-327.56
	1144	572.5	1.30374E+000	1.33508E-001	0.00000E+000	1.30525E+000	-1.07355E-004	11	...........	-327.56
	1188	594.5	1.34749E+000	2.15774E-001	0.00000E+000	1.34925E+000	-1.03655E-004	11	...........	-327.56
	1232	616.5	1.39169E+000	3.14927E-001	0.00000E+000	1.39325E+000	-1.05288E-004	12	...........	-327.56
	1276	638.5	1.43556E+000	4.21876E-001	0.00000E+000	1.43725E+000	-1.07588E-004	12	...........	-327.56
	1320	660.5	1.47944E+000	5.17799E-001	0.00000E+000	1.48125E+000	-1.09588E-004	12	...........	-327.56
	1364	682.5	1.52336E+000	6.29262E-001	0.00000E+000	1.52525E+000	-1.05921E-004	12	...........	-327.56
	1408	704.5	1.56724E+000	7.59021E-001	0.00000E+000	1.56925E+000	-1.08188E-004	12	...........	-327.56
	1452	726.5	1.61113E+000	8.81619E-001	0.00000E+000	1.61325E+000	-1.04888E-004	12	...........	-327.56
	1496	748.5	1.65495E+000	1.01890E+000	0.00000E+000	1.65725E+000	-1.07155E-004	12	...........	-327.56
	1540	770.5	1.69691E+000	1.14907E+000	0.00000E+000	1.69925E+000	-1.07955E-004	12	...........	-327.56
	1584	792.5	1.65289E+000	1.06271E+000	0.00000E+000	1.65525E+000	-1.08155E-004	12	...........	-327.56
	1628	814.5	1.60903E+000	9.79233E-001	0.00000E+000	1.61125E+000	-1.03421E-004	12	...........	-327.56
	1672	836.5	1.56517E+000	8.68246E-001	0.00000E+000	1.56725E+000	-1.07355E-004	12	...........	-327.56
	1716	858.5	1.52130E+000	7.66227E-001	0.00000E+000	1.52325E+000	-1.03621E-004	12	...........	-327.56
	1760	880.5	1.47737E+000	6.46352E-001	0.00000E+000	1.47925E+000	-1.04721E-004	12	...........	-327.56
	1804	902.5	1.43351E+000	5.44469E-001	0.00000E+000	1.43525E+000	-1.04921E-004	12	...........	-327.56
	1848	924.5	1.38961E+000	4.50262E-001	0.00000E+000	1.39125E+000	-1.08688E-004	12	...........	-327.56
	1892	946.5	1.34558E+000	3.58576E-001	0.00000E+000	1.34725E+000	-1.10455E-004	12	...........	-327.56
	1936	968.5	1.30180E+000	2.51005E-001	0.00000E+000	1.30325E+000	-1.06588E-004	12	...........	-327.56
	1980	990.5	1.25774E+000	1.66415E-001	0.00000E+000	1.25925E+000	-1.05588E-004	11	...........	-327.56
	2024	1012.5	1.21383E+000	1.07539E-001	0.00000E+000	1.21525E+000	-1.04321E-004	11	...........	-327.56
	2068	1034.5	1.16991E+000	6.46370E-002	0.00000E+000	1.17125E+000	-1.08421E-004	11	...........	-327.56
	2112	1056.5	1.12603E+000	3.94425E-002	0.00000E+000	1.12725E+000	-1.06955E-004	11	...........	-327.56
	2156	1078.5	1.08188E+000	2.27487E-002	0.00000E+000	1.08325E+000	-1.04321E-004	10	...........	-327.56
	2200	1100.5	1.03790E+000	1.63107E-002	0.00000E+000	1.03925E+000	-1.04788E-004	10	...........	-327.56
	2244	1122.5	9.94012E-001	1.40612E-002	0.00000E+000	9.95250E-001	-1.03588E-004	10	...........	-327.56
	2288	1144.5	9.50095E-001	1.31777E-002	0.00000E+000	9.51250E-001	-1.05521E-004	10	...........	-327.56
	2332	1166.5	9.06191E-001	1.25264E-002	0.00000E+000	9.07250E-001	-1.01021E-004	10	...........	-327.56
	2376	1188.5	8.62225E-001	1.17472E-002	0.00000E+000	8.63250E-001	-1.05921E-004	10	...........	-327.56
	2420	1210.5	8.18259E-001	1.16859E-002	0.00000E+000	8.19250E-001	-1.04421E-004	10	...........	-327.56
	2464	1232.5	7.74322E-001	1.21684E-002	0.00000E+000	7.75250E-001	-1.05888E-004	10	...........	-327.56
	2508	1254.5	7.30244E-001	1.21377E-002	0.00000E+000	7.31250E-001	-1.05488E-004	10	...........	-327.56
	2552	1276.5	6.86359E-001	1.12256E-002	0.00000E+000	6.87250E-001	-1.08121E-004	10	...........	-327.56
	2596	1298.5	6.42443E-001	1.08565E-002	0.00000E+000	6.43250E-001	-1.05888E-004	10	...........	-327.56
	2640	1320.5	5.98525E-001	9.84179E-003	0.00000E+000	5.99250E-001	-1.05855E-004	10	...........	-327.56
	2684	1342.5	5.54480E-001	9.31522E-003	0.00000E+000	5.55250E-001	-1.04321E-004	10	...........	-327.56
	2728	1364.5	5.10593E-001	8.76144E-003	0.00000E+000	5.11250E-001	-1.07421E-004	10	...........	-327.56
	2772	1386.5	4.66664E-001	7.54506E-003	0.00000E+000	4.67250E-001	-1.05055E-004	10	...........	-327.56
	2816	1408.5	4.22616E-001	6.31368E-003	0.00000E+000	4.23250E-001	-1.06555E-004	10	...........	-327.56
	2860	1430.5	3.78704E-001	4.77704E-003	0.00000E+000	3.79250E-001	-1.09721E-004	10	...........	-327.56
	2904	1452.5	3.34788E-001	2.87760E-003	0.00000E+000	3.35250E-001	-1.06755E-004	10	...........	-327.56
	2948	1474.5	2.91021E-001	-6.83518E-004	0.00000E+000	2.91250E-001	-1.06321E-004	9	...........	-327.56
	2992	1496.5	2.47271E-001	-2.87369E-004	0.00000E+000	2.47250E-001	-9.08881E-005	8	...........	-327.56
	3036	1518.5	2.03174E-001	-1.94426E-003	0.00000E+000	2.03250E-001	-1.08255E-004	9	...........	-327.56
	3080	1540.5	1.59290E-001	-2.16275E-003	0.00000E+000	1.59250E-001	-1.01321E-004	9	...........	-327.56
	3124	1562.5	1.15103E-001	-4.61977E-003	0.00000E+000	1.15250E-001	-1.04321E-004	10	...........	-327.56
	3168	1584.5	7.11339E-002	-5.84521E-003	0.00000E+000	7.12500E-002	-1.02355E-004	10	...........	-327.56
	3212	1606.5	2.72258E-002	-6.77589E-003	0.00000E+000	2.72500E-002	-1.05088E-004	10	...........	-327.56
	3256	1628.5	-1.65473E-002	-7.38433E-003	0.00000E+000	-1.67500E-002	-1.06988E-004	10	...........	-327.56
	3300	1650.5	-6.05581E-002	-8.34541E-003	0.00000E+000	-6.07500E-002	-1.04388E-004	10	...........	-327.56
	3344	1672.5	-1.04465E-001	-8.87791E-003	0.00000E+000	-1.04750E-001	-1.08155E-004	10	...........	-327.56
	3388	1694.5	-1.48388E-001	-8.36097E-003	0.00000E+000	-1.48750E-001	-1.06888E-004	10	...........	-327.56
	3432	1716.5	-1.92368E-001	-8.60363E-003	0.00000E+000	-1.92750E-001	-1.05355E-004	10	...........	-327.56
	3476	1738.5	-2.36359E-001	-9.59300E-003	0.00000E+000	-2.36750E-001	-1.02421E-004	10	...........	-327.56
	3520	1760.5	-2.80234E-001	-1.27008E-002	0.00000E+000	-2.80750E-001	-1.06888E-004	10	...........	-327.56
	3564	1782.5	-3.24068E-001	-1.88866E-002	0.00000E+000	-3.24750E-001	-1.00821E-004	10	...........	-327.56
	3608	1804.5	-3.68300E-001	-3.28403E-002	0.00000E+000	-3.68750E-001	-1.10155E-004	11	...........	-327.56
	3652	1826.5	-4.12214E-001	-5.68935E-002	0.00000E+000	-4.12750E-001	-1.05655E-004	11	...........	-327.56
	3696	1848.5	-4.56086E-001	-1.02646E-001	0.00000E+000	-4.56750E-001	-1.07588E-004	11	...........	-327.56
	3740	1870.5	-4.99966E-001	-1.73510E-001	0.00000E+000	-5.00750E-001	-1.05788E-004	11	...........	-327.56
	3784	1892.5	-5.43849E-001	-2.13802E-001	0.00000E+000	-5.44750E-001	-1.01621E-004	11	...........	-327.56
	3828	1914.5	-5.87741E-001	-2.41689E-001	0.00000E+000	-5.88750E-001	-9.86214E-005	11	...........	-327.56
	3872	1936.5	-6.31912E-001	-2.97670E-001	0.00000E+000	-6.32750E-001	-1.11155E-004	12	...........	-327.56
	3916	1958.5	-6.75926E-001	-3.53036E-001	0.00000E+000	-6.76750E-001	-1.06555E-004	12	...........	-327.56
	3960	1980.5	-7.19772E-001	-4.22566E-001	0.00000E+000	-7.20750E-001	-1.06888E-004	12	...........	-327.56
	4004	2002.5	-7.63707E-001	-4.47599E-001	0.00000E+000	-7.64750E-001	-1.08021E-004	12	...........	-327.56
	4048	2024.5	-8.07626E-001	-5.16733E-001	0.00000E+000	-8.08750E-001	-1.05821E-004	12	...........	-327.56
	4092	2046.5	-8.51544E-001	-6.24846E-001	0.00000E+000	-8.52750E-001	-1.03955E-004	12	...........	-327.56
	4136	2068.5	-8.95415E-001	-7.27467E-001	0.00000E+000	-8.96750E-001	-1.05855E-004	12	...........	-327.56
	4180	2090.5	-9.39306E-001	-7.40199E-001	0.00000E+000	-9.40750E-001	-1.05488E-004	12	...........	-327.56
	4224	2112.5	-9.83400E-001	-6.81432E-001	0.00000E+000	-9.84750E-001	-1.04121E-004	12	...........	-327.56
	4268	2134.5	-1.02725E+000	-7.77878E-001	0.00000E+000	-1.02875E+000	-1.08988E-004	12	...........	-327.56
	4312	2156.5	-1.07112E+000	-8.85679E-001	0.00000E+000	-1.07275E+000	-1.09188E-004	12	...........	-327.56
	4339	2170	-1.09808E+000	-9.52524E-001	0.00000E+000	-1.09975E+000	-1.07588E-004	12	...........	-327.56
CURVE2	TABLE
	Pt	T	Vf	Im	Vu	Sig	Ach	IERange	Over	Temp
	#	s	V vs. Ref.	A	V	V	V	#	bits	deg C
	4340	2170.5	-1.09732E+000	-9.50481E-001	0.00000E+000	-1.09900E+000	-1.04055E-004	12	...........	-327.56
	4398	2199.5	-1.03944E+000	-7.98162E-001	0.00000E+000	-1.04100E+000	-1.03088E-004	12	...........	-327.56
	4456	2228.5	-9.81660E-001	-6.53732E-001	0.00000E+000	-9.83000E-001	-1.06721E-004	12	...........	-327.56
	4514	2257.5	-9.23750E-001	-5.21286E-001	0.00000E+000	-9.25000E-001	-1.09588E-004	12	...........	-327.56
	4572	2286.5	-8.65880E-001	-3.85571E-001	0.00000E+000	-8.67000E-001	-1.04888E-004	12	...........	-327.56
	4630	2315.5	-8.08046E-001	-2.70296E-001	0.00000E+000	-8.09000E-001	-1.08521E-004	12	...........	-327.56
	4688	2344.5	-7.50010E-001	-1.72024E-001	0.00000E+000	-7.51000E-001	-1.04388E-004	11	...........	-327.56
	4746	2373.5	-6.92175E-001	-1.01012E-001	0.00000E+000	-6.93000E-001	-1.05955E-004	11	...........	-327.56
	4804	2402.5	-6.34175E-001	-1.23149E-002	0.00000E+000	-6.35000E-001	-1.08388E-004	10	...........	-327.56
	4862	2431.5	-5.76555E-001	8.80669E-002	0.00000E+000	-5.77000E-001	-1.07988E-004	11	...........	-327.56
	4920	2460.5	-5.18829E-001	2.02479E-001	0.00000E+000	-5.19000E-001	-1.07221E-004	11	...........	-327.56
	4978	2489.5	-4.60892E-001	2.26655E-001	0.00000E+000	-4.61000E-001	-1.10121E-004	11	...........	-327.56
	5036	2518.5	-4.02737E-001	3.39170E-001	0.00000E+000	-4.03000E-001	-1.05155E-004	12	...........	-327.56
	5094	2547.5	-3.44932E-001	4.23789E-001	0.00000E+000	-3.45000E-001	-1.10088E-004	12	...........	-327.56
	5152	2576.5	-2.86967E-001	4.36713E-001	0.00000E+000	-2.87000E-001	-1.10821E-004	12	...........	-327.56
	5210	2605.5	-2.28849E-001	2.47243E-001	0.00000E+000	-2.29000E-001	-1.08688E-004	12	...........	-327.56
	5268	2634.5	-1.70865E-001	8.42524E-002	0.00000E+000	-1.71000E-001	-1.06188E-004	11	...........	-327.56
	5326	2663.5	-1.12919E-001	4.12731E-002	0.00000E+000	-1.13000E-001	-1.09921E-004	11	...........	-327.56
	5384	2692.5	-5.49632E-002	4.59467E-002	0.00000E+000	-5.50000E-002	-1.09021E-004	11	...........	-327.56
	5442	2721.5	2.70856E-003	9.38528E-002	0.00000E+000	3.00002E-003	-1.07988E-004	11	...........	-327.56
	5500	2750.5	6.06100E-002	1.64024E-001	0.00000E+000	6.10000E-002	-1.06388E-004	11	...........	-327.56
	5558	2779.5	1.18373E-001	2.02201E-001	0.00000E+000	1.19000E-001	-1.09621E-004	11	...........	-327.56
	5616	2808.5	1.76381E-001	1.94244E-001	0.00000E+000	1.77000E-001	-1.05288E-004	11	...........	-327.56
	5674	2837.5	2.34468E-001	1.33099E-001	0.00000E+000	2.35000E-001	-1.11388E-004	11	...........	-327.56
	5732	2866.5	2.92451E-001	1.27258E-001	0.00000E+000	2.93000E-001	-1.08455E-004	11	...........	-327.56
	5790	2895.5	3.50325E-001	1.47624E-001	0.00000E+000	3.51000E-001	-1.10255E-004	11	...........	-327.56
	5848	2924.5	4.08228E-001	1.71266E-001	0.00000E+000	4.09000E-001	-1.05521E-004	11	...........	-327.56
	5906	2953.5	4.66292E-001	1.38191E-001	0.00000E+000	4.67000E-001	-1.05955E-004	11	...........	-327.56
	5964	2982.5	5.24220E-001	1.20173E-001	0.00000E+000	5.25000E-001	-1.12821E-004	11	...........	-327.56
	6022	3011.5	5.82218E-001	1.10880E-001	0.00000E+000	5.83000E-001	-1.08588E-004	11	...........	-327.56
	6080	3040.5	6.40171E-001	9.13670E-002	0.00000E+000	6.41000E-001	-1.09655E-004	11	...........	-327.56
	6138	3069.5	6.98202E-001	7.53142E-002	0.00000E+000	6.99000E-001	-1.04455E-004	11	...........	-327.56
	6196	3098.5	7.56024E-001	6.04187E-002	0.00000E+000	7.57000E-001	-1.11555E-004	11	...........	-327.56
	6254	3127.5	8.14057E-001	5.24892E-002	0.00000E+000	8.15000E-001	-1.12721E-004	11	...........	-327.56
	6312	3156.5	8.72019E-001	4.77903E-002	0.00000E+000	8.73000E-001	-1.13421E-004	11	...........	-327.56
	6370	3185.5	9.29982E-001	4.41376E-002	0.00000E+000	9.31000E-001	-1.09121E-004	11	...........	-327.56
	6428	3214.5	9.87847E-001	4.32999E-002	0.00000E+000	9.89000E-001	-1.06288E-004	11	...........	-327.56
	6486	3243.5	1.04583E+000	4.71989E-002	0.00000E+000	1.04700E+000	-1.10655E-004	11	...........	-327.56
	6544	3272.5	1.10383E+000	5.80516E-002	0.00000E+000	1.10500E+000	-1.06988E-004	11	...........	-327.56
	6602	3301.5	1.16173E+000	5.77540E-002	0.00000E+000	1.16300E+000	-1.08855E-004	11	...........	-327.56
	6660	3330.5	1.21962E+000	5.33084E-002	0.00000E+000	1.22100E+000	-1.10721E-004	11	...........	-327.56
	6718	3359.5	1.27756E+000	9.35876E-002	0.00000E+000	1.27900E+000	-1.09021E-004	11	...........	-327.56
[...]
	10346	5173.5	-6.92188E-001	-9.07814E-002	0.00000E+000	-6.93000E-001	-1.06321E-004	11	...........	-327.56
	10375	5188	-6.63243E-001	-5.09677E-002	0.00000E+000	-6.64000E-001	-1.07655E-004	11	...........	-327.56
	10404	5202.5	-6.34198E-001	-1.02227E-002	0.00000E+000	-6.35000E-001	-1.10688E-004	10	...........	-327.56
	10433	5217	-6.05439E-001	3.68653E-002	0.00000E+000	-6.06000E-001	-1.11655E-004	11	...........	-327.56
	10462	5231.5	-5.76555E-001	8.92809E-002	0.00000E+000	-5.77000E-001	-1.08788E-004	11	...........	-327.56
	10491	5246	-5.47707E-001	1.36301E-001	0.00000E+000	-5.48000E-001	-1.07688E-004	11	...........	-327.56
	10520	5260.5	-5.18792E-001	1.84725E-001	0.00000E+000	-5.19000E-001	-1.09621E-004	11	...........	-327.56
	10549	5275	-4.89827E-001	1.94036E-001	0.00000E+000	-4.90000E-001	-1.08621E-004	11	...........	-327.56
	10578	5289.5	-4.60890E-001	2.27132E-001	0.00000E+000	-4.61000E-001	-1.10588E-004	11	...........	-327.56
	10607	5304	-4.31688E-001	2.85989E-001	0.00000E+000	-4.32000E-001	-1.11421E-004	12	...........	-327.56
	10636	5318.5	-4.02741E-001	3.41506E-001	0.00000E+000	-4.03000E-001	-1.06321E-004	12	...........	-327.56
	10665	5333	-3.73765E-001	3.86404E-001	0.00000E+000	-3.74000E-001	-1.06821E-004	12	...........	-327.56
	10694	5347.5	-3.44922E-001	4.08756E-001	0.00000E+000	-3.45000E-001	-1.10988E-004	12	...........	-327.56
	10723	5362	-3.15912E-001	4.18995E-001	0.00000E+000	-3.16000E-001	-1.12855E-004	12	...........	-327.56
	10752	5376.5	-2.86920E-001	3.71360E-001	0.00000E+000	-2.87000E-001	-1.10888E-004	12	...........	-327.56
	10781	5391	-2.57857E-001	3.00754E-001	0.00000E+000	-2.58000E-001	-1.10755E-004	12	...........	-327.56
	10810	5405.5	-2.28959E-001	1.78172E-001	0.00000E+000	-2.29000E-001	-1.12888E-004	11	...........	-327.56
	10839	5420	-1.99886E-001	9.99490E-002	0.00000E+000	-2.00000E-001	-1.11988E-004	11	...........	-327.56
	10868	5434.5	-1.70810E-001	5.73715E-002	0.00000E+000	-1.71000E-001	-1.07521E-004	11	...........	-327.56
	10897	5449	-1.41814E-001	3.68688E-002	0.00000E+000	-1.42000E-001	-1.09288E-004	11	...........	-327.56
	10926	5463.5	-1.12917E-001	3.40395E-002	0.00000E+000	-1.13000E-001	-1.08455E-004	11	...........	-327.56
	10955	5478	-8.39590E-002	3.37222E-002	0.00000E+000	-8.40000E-002	-1.07255E-004	11	...........	-327.56
	10984	5492.5	-5.49536E-002	3.95565E-002	0.00000E+000	-5.50000E-002	-1.15321E-004	11	...........	-327.56
	11013	5507	-2.60169E-002	5.68586E-002	0.00000E+000	-2.60000E-002	-1.10921E-004	11	...........	-327.56
	11042	5521.5	2.72622E-003	8.70211E-002	0.00000E+000	3.00002E-003	-1.07088E-004	11	...........	-327.56
	11071	5536	3.16920E-002	1.26426E-001	0.00000E+000	3.20000E-002	-1.12421E-004	11	...........	-327.56
	11100	5550.5	6.06250E-002	1.61570E-001	0.00000E+000	6.10000E-002	-1.08621E-004	11	...........	-327.56
	11129	5565	8.95408E-002	1.87228E-001	0.00000E+000	9.00000E-002	-1.08455E-004	11	...........	-327.56
	11158	5579.5	1.18372E-001	2.01461E-001	0.00000E+000	1.19000E-001	-1.09121E-004	11	...........	-327.56
	11187	5594	1.47429E-001	1.84062E-001	0.00000E+000	1.48000E-001	-1.06221E-004	11	...........	-327.56
	11216	5608.5	1.76459E-001	1.51527E-001	0.00000E+000	1.77000E-001	-1.08121E-004	11	...........	-327.56
	11245	5623	2.05460E-001	1.42846E-001	0.00000E+000	2.06000E-001	-1.08788E-004	11	...........	-327.56
	11274	5637.5	2.34538E-001	1.04593E-001	0.00000E+000	2.35000E-001	-1.10388E-004	11	...........	-327.56
	11303	5652	2.63511E-001	1.02407E-001	0.00000E+000	2.64000E-001	-1.08388E-004	11	...........	-327.56
	11332	5666.5	2.92492E-001	1.12583E-001	0.00000E+000	2.93000E-001	-1.06321E-004	11	...........	-327.56
	11361	5681	3.21370E-001	1.21673E-001	0.00000E+000	3.22000E-001	-1.11055E-004	11	...........	-327.56
	11390	5695.5	3.50335E-001	1.31331E-001	0.00000E+000	3.51000E-001	-1.11788E-004	11	...........	-327.56
	11419	5710	3.79251E-001	1.55101E-001	0.00000E+000	3.80000E-001	-1.11621E-004	11	...........	-327.56
	11448	5724.5	4.08256E-001	1.52944E-001	0.00000E+000	4.09000E-001	-1.04788E-004	11	...........	-327.56
	11477	5739	4.37322E-001	1.22310E-001	0.00000E+000	4.38000E-001	-1.11788E-004	11	...........	-327.56
	11506	5753.5	4.66333E-001	1.17536E-001	0.00000E+000	4.67000E-001	-1.09521E-004	11	...........	-327.56
	11535	5768	4.95319E-001	1.13708E-001	0.00000E+000	4.96000E-001	-1.13355E-004	11	...........	-327.56
	11564	5782.5	5.24231E-001	1.14245E-001	0.00000E+000	5.25000E-001	-1.09088E-004	11	...........	-327.56
	11593	5797	5.53178E-001	9.97427E-002	0.00000E+000	5.54000E-001	-1.09188E-004	11	...........	-327.56
	11622	5811.5	5.82262E-001	8.96865E-002	0.00000E+000	5.83000E-001	-1.09188E-004	11	...........	-327.56
	11651	5826	6.11197E-001	7.55970E-002	0.00000E+000	6.12000E-001	-1.10188E-004	11	...........	-327.56
	11680	5840.5	6.40205E-001	6.73957E-002	0.00000E+000	6.41000E-001	-1.12355E-004	11	...........	-327.56
	11709	5855	6.69225E-001	6.06095E-002	0.00000E+000	6.70000E-001	-1.08288E-004	11	...........	-327.56
	11738	5869.5	6.98232E-001	5.43209E-002	0.00000E+000	6.99000E-001	-1.08388E-004	11	...........	-327.56
	11767	5884	7.27167E-001	5.21486E-002	0.00000E+000	7.28000E-001	-1.08421E-004	11	...........	-327.56
	11796	5898.5	7.56042E-001	5.12379E-002	0.00000E+000	7.57000E-001	-1.13588E-004	11	...........	-327.56
	11825	5913	7.85066E-001	4.96408E-002	0.00000E+000	7.86000E-001	-1.10088E-004	11	...........	-327.56
	11854	5927.5	8.14083E-001	4.87168E-002	0.00000E+000	8.15000E-001	-1.11021E-004	11	...........	-327.56
	11883	5942	8.43060E-001	4.73982E-002	0.00000E+000	8.44000E-001	-1.08921E-004	11	...........	-327.56
	11912	5956.5	8.72030E-001	4.67714E-002	0.00000E+000	8.73000E-001	-1.12588E-004	11	...........	-327.56
	11941	5971	9.01041E-001	4.51426E-002	0.00000E+000	9.02000E-001	-1.09121E-004	11	...........	-327.56
	11970	5985.5	9.29974E-001	4.36537E-002	0.00000E+000	9.31000E-001	-1.10788E-004	11	...........	-327.56
	11999	6000	9.58969E-001	4.16799E-002	0.00000E+000	9.60000E-001	-1.06721E-004	11	...........	-327.56
	12028	6014.5	9.87854E-001	4.69031E-002	0.00000E+000	9.89000E-001	-1.10988E-004	11	...........	-327.56
	12057	6029	1.01686E+000	4.12513E-002	0.00000E+000	1.01800E+000	-1.11721E-004	11	...........	-327.56
	12086	6043.5	1.04584E+000	4.58202E-002	0.00000E+000	1.04700E+000	-1.11955E-004	11	...........	-327.56
	12115	6058	1.07480E+000	4.88109E-002	0.00000E+000	1.07600E+000	-1.08888E-004	11	...........	-327.56
	12144	6072.5	1.10385E+000	5.35146E-002	0.00000E+000	1.10500E+000	-1.08855E-004	11	...........	-327.56
	12173	6087	1.13275E+000	5.70521E-002	0.00000E+000	1.13400E+000	-1.08155E-004	11	...........	-327.56
	12202	6101.5	1.16176E+000	5.50936E-002	0.00000E+000	1.16300E+000	-1.08421E-004	11	...........	-327.56
	12231	6116	1.19064E+000	4.93401E-002	0.00000E+000	1.19200E+000	-1.09721E-004	11	...........	-327.56
	12260	6130.5	1.21963E+000	4.69232E-002	0.00000E+000	1.22100E+000	-1.05988E-004	11	...........	-327.56
	12289	6145	1.24862E+000	5.95322E-002	0.00000E+000	1.25000E+000	-1.08121E-004	11	...........	-327.56
	12318	6159.5	1.27757E+000	8.89976E-002	0.00000E+000	1.27900E+000	-1.08455E-004	11	...........	-327.56
	12347	6174	1.30653E+000	1.23154E-001	0.00000E+000	1.30800E+000	-1.09455E-004	11	...........	-327.56
	12376	6188.5	1.33542E+000	1.67059E-001	0.00000E+000	1.33700E+000	-1.06788E-004	11	...........	-327.56
	12405	6203	1.36430E+000	2.17826E-001	0.00000E+000	1.36600E+000	-1.07055E-004	11	...........	-327.56
	12434	6217.5	1.39349E+000	2.76697E-001	0.00000E+000	1.39500E+000	-1.10655E-004	12	...........	-327.56
	12463	6232	1.42235E+000	3.23444E-001	0.00000E+000	1.42400E+000	-1.11421E-004	12	...........	-327.56
	12492	6246.5	1.45131E+000	3.86988E-001	0.00000E+000	1.45300E+000	-1.13488E-004	12	...........	-327.56
	12521	6261	1.48027E+000	4.39892E-001	0.00000E+000	1.48200E+000	-1.08288E-004	12	...........	-327.56
	12550	6275.5	1.50919E+000	5.11960E-001	0.00000E+000	1.51100E+000	-1.09588E-004	12	...........	-327.56
	12579	6290	1.53814E+000	5.90131E-001	0.00000E+000	1.54000E+000	-1.09721E-004	12	...........	-327.56
	12608	6304.5	1.56707E+000	6.67764E-001	0.00000E+000	1.56900E+000	-1.06588E-004	12	...........	-327.56
	12637	6319	1.59599E+000	7.53671E-001	0.00000E+000	1.59800E+000	-1.09355E-004	12	...........	-327.56
	12666	6333.5	1.62490E+000	8.30927E-001	0.00000E+000	1.62700E+000	-1.10321E-004	12	...........	-327.56
	12695	6348	1.65376E+000	9.18205E-001	0.00000E+000	1.65600E+000	-1.12421E-004	12	...........	-327.56
	12724	6362.5	1.68272E+000	9.99607E-001	0.00000E+000	1.68500E+000	-1.11188E-004	12	...........	-327.56
	12739	6370	1.69773E+000	1.04864E+000	0.00000E+000	1.70000E+000	-1.09988E-004	12	...........	-327.56