File: testing/data/240902_15_MCL13_cswWE_CV2_750C_CO2_post.DTA
EXPLAIN
TAG	CV
TITLE	LABEL	Cyclic Voltammetry	Test Identifier
DATE	LABEL	9/3/2024	Date
TIME	LABEL	14:43:30	Time
NOTES	NOTES	5	Notes...
	cswWE - carbon steel wire
cspWE - carbon steel plate 2x2 tapered

Carbon steel plate counter electrode
Carbon steel wire reference electrode
PSTAT	PSTAT	REF3000-48128	Potentiostat
VINIT	POTEN	0.00000E+000	T	Initial E (V)
VLIMIT1	POTEN	1.70000E+000	F	Scan Limit 1 (V)
VLIMIT2	POTEN	-1.00000E+000	F	Scan Limit 2 (V)
VFINAL	POTEN	1.70000E+000	F	Final E (V)
SCANRATE	QUANT	2.00000E+000	Scan Rate (mV/s)
STEPSIZE	QUANT	1.00000E+000	Step Size (mV)
CYCLES	IQUANT	2	Cycles (#)
IMODE	SELECTOR	0	I/E Range Mode
IRANGE	QUANT	3.00000E-001	Max Current (mA)
AREA	QUANT	1.00000E+000	Sample Area (cm^2)
EQDELAY	QUANT	0.00000E+000	Equil. Time (s)
IRCOMP	SELECTOR	0	IRComp
PFCOR	QUANT	5.00000E+001	PF Corr. (ohm)
SAMPLINGMODE	SELECTOR	1	Sampling Mode
EOC	QUANT	0.2475526	Open Circuit (V)
ELECTRODETYPE	SELECTOR	0	Electrode Type
STRIPPING	TOGGLE	F	Used for Stripping
SEQUENCER	TOGGLE	TRUE	Run as Sequence
PSTATMODEL	IQUANT	5	Pstat Model
PSTATSECTION	LABEL	REF3000-48128	Pstat Section
PSTATSERIALNO	LABEL	48128	Pstat Serial Number
CTRLMODE	IQUANT	1	Control Mode
ELECTROMETER	IQUANT	0	RE=0 or CS=1
IESTAB	IQUANT	2	I/E Stability
CASPEED	IQUANT	4	Control Amp Speed
CONVENTION	IQUANT	1	Current Convention
ICHRANGE	IQUANT	2	Ich Range
ICHRANGEMODE	TOGGLE	F	Ich Auto Range
ICHOFFSETENABLE	TOGGLE	F	Ich Offset Enable
ICHOFFSET	QUANT	0	Ich Offset (V)
ICHFILTER	IQUANT	3	Ich Filter
VCHRANGE	IQUANT	2	Vch Range
VCHRANGEMODE	TOGGLE	F	Vch Auto Range
VCHOFFSETENABLE	TOGGLE	F	Vch Offset Enable
VCHOFFSET	QUANT	0	Vch Offset (V)
VCHFILTER	IQUANT	3	Vch Filter
ACHRANGE	IQUANT	2	Ach Range
ACHOFFSETENABLE	TOGGLE	F	Ach Offset Enable
ACHOFFSET	QUANT	0	Ach Offset (V)
ACHFILTER	IQUANT	1	Ach Filter
IERANGELOWERLIMIT	IQUANT	2	I/E Range Lower Limit
IERANGEMODE	TOGGLE	T	I/E AutoRange
IERANGE	IQUANT	9	I/E Range
POSFEEDENABLE	TOGGLE	F	Positive Feedback IR Comp
POSFEEDRESISTANCE	QUANT	0	Positive Feedback Resistance (ohm)
ACHSELECT	IQUANT	4	Ach Select
SENSECABLEID	IQUANT	14	Sense Cable ID
PWRCABLEID	IQUANT	7	Power Cable ID
DCCALDATE	LABEL	8/16/2024	DC Calibration Date
ACCALDATE	LABEL	8/16/2024	AC Calibration Date
THERMOSELECT	IQUANT	1	Thermo Select
FRAMEWORKVERSION	LABEL	7.10.3	Framework Version
INSTRUMENTVERSION	LABEL	4.91	Instrument Version
COMMVERSION	LABEL	5.10	Communications Version
CPUPLDVERSION	LABEL	6.00	CPU PLD Version
CTRLPLDVERSION	LABEL	3.21	CTRL PLD Version
PSTATPLDVERSION	LABEL	0.00	PSTAT PLD Version
COMPLIANCEVOLTAGE	IQUANT	0	Compliance Voltage
CURVE1	TABLE
	Pt	T	Vf	Im	Vu	Sig	Ach	IERange	Over	Temp
	#	s	V vs. Ref.	A	V	V	V	#	bits	deg C
	0	0.5	2.47171E-001	2.10633E-005	0.00000E+000	2.47550E-001	-1.11655E-004	9	...........	-327.56
	42	21.5	2.88953E-001	2.03632E-003	0.00000E+000	2.89550E-001	-1.17921E-004	9	...........	-327.56
	84	42.5	3.31105E-001	3.65823E-003	0.00000E+000	3.31550E-001	-1.18588E-004	10	...........	-327.56
	126	63.5	3.72955E-001	5.85929E-003	0.00000E+000	3.73550E-001	-1.21088E-004	10	...........	-327.56
	168	84.5	4.15003E-001	7.83766E-003	0.00000E+000	4.15550E-001	-1.20355E-004	10	...........	-327.56
	210	105.5	4.56946E-001	7.31151E-003	0.00000E+000	4.57550E-001	-1.21788E-004	10	...........	-327.56
	252	126.5	4.98966E-001	6.91546E-003	0.00000E+000	4.99550E-001	-1.20521E-004	10	...........	-327.56
	294	147.5	5.40899E-001	6.26379E-003	0.00000E+000	5.41550E-001	-1.21988E-004	10	...........	-327.56
	336	168.5	5.82798E-001	6.23024E-003	0.00000E+000	5.83550E-001	-1.21921E-004	10	...........	-327.56
	378	189.5	6.24835E-001	6.21146E-003	0.00000E+000	6.25550E-001	-1.21921E-004	10	...........	-327.56
	420	210.5	6.66776E-001	6.29722E-003	0.00000E+000	6.67550E-001	-1.25855E-004	10	...........	-327.56
	462	231.5	7.08743E-001	6.33646E-003	0.00000E+000	7.09550E-001	-1.24455E-004	10	...........	-327.56
	504	252.5	7.50722E-001	6.49003E-003	0.00000E+000	7.51550E-001	-1.22988E-004	10	...........	-327.56
	546	273.5	7.92642E-001	6.68610E-003	0.00000E+000	7.93550E-001	-1.22688E-004	10	...........	-327.56
	588	294.5	8.34547E-001	6.78926E-003	0.00000E+000	8.35550E-001	-1.20588E-004	10	...........	-327.56
	630	315.5	8.76608E-001	6.73554E-003	0.00000E+000	8.77550E-001	-1.19521E-004	10	...........	-327.56
	672	336.5	9.18526E-001	6.70233E-003	0.00000E+000	9.19550E-001	-1.22688E-004	10	...........	-327.56
	714	357.5	9.60397E-001	6.71647E-003	0.00000E+000	9.61550E-001	-1.24588E-004	10	...........	-327.56
	756	378.5	1.00247E+000	6.82255E-003	0.00000E+000	1.00355E+000	-1.27321E-004	10	...........	-327.56
	798	399.5	1.04436E+000	7.46337E-003	0.00000E+000	1.04555E+000	-1.20088E-004	10	...........	-327.56
	840	420.5	1.08636E+000	9.22704E-003	0.00000E+000	1.08755E+000	-1.20588E-004	10	...........	-327.56
	882	441.5	1.12825E+000	1.23163E-002	0.00000E+000	1.12955E+000	-1.18088E-004	10	...........	-327.56
	924	462.5	1.17014E+000	1.61192E-002	0.00000E+000	1.17155E+000	-1.19455E-004	10	...........	-327.56
	966	483.5	1.21208E+000	2.20155E-002	0.00000E+000	1.21355E+000	-1.21721E-004	10	...........	-327.56
	1008	504.5	1.25429E+000	3.64316E-002	0.00000E+000	1.25555E+000	-1.21821E-004	11	...........	-327.56
	1050	525.5	1.29616E+000	6.05259E-002	0.00000E+000	1.29755E+000	-1.18388E-004	11	...........	-327.56
	1092	546.5	1.33808E+000	1.06795E-001	0.00000E+000	1.33955E+000	-1.17255E-004	11	...........	-327.56
	1134	567.5	1.37990E+000	1.67652E-001	0.00000E+000	1.38155E+000	-1.18988E-004	11	...........	-327.56
	1176	588.5	1.42169E+000	2.40381E-001	0.00000E+000	1.42355E+000	-1.21088E-004	11	...........	-327.56
	1218	609.5	1.46397E+000	3.05104E-001	0.00000E+000	1.46555E+000	-1.21655E-004	12	...........	-327.56
	1260	630.5	1.50584E+000	3.95198E-001	0.00000E+000	1.50755E+000	-1.19921E-004	12	...........	-327.56
	1302	651.5	1.54778E+000	4.76586E-001	0.00000E+000	1.54955E+000	-1.21788E-004	12	...........	-327.56
	1344	672.5	1.58966E+000	5.77735E-001	0.00000E+000	1.59155E+000	-1.22055E-004	12	...........	-327.56
	1386	693.5	1.63153E+000	6.71927E-001	0.00000E+000	1.63355E+000	-1.21421E-004	12	...........	-327.56
	1428	714.5	1.67350E+000	7.80258E-001	0.00000E+000	1.67555E+000	-1.20921E-004	12	...........	-327.56
	1470	735.5	1.67939E+000	8.07097E-001	0.00000E+000	1.68155E+000	-1.20821E-004	12	...........	-327.56
	1512	756.5	1.63749E+000	7.53067E-001	0.00000E+000	1.63955E+000	-1.18655E-004	12	...........	-327.56
	1554	777.5	1.59561E+000	6.85200E-001	0.00000E+000	1.59755E+000	-1.19221E-004	12	...........	-327.56
	1596	798.5	1.55359E+000	6.00939E-001	0.00000E+000	1.55555E+000	-1.20655E-004	12	...........	-327.56
	1638	819.5	1.51180E+000	5.36211E-001	0.00000E+000	1.51355E+000	-1.22055E-004	12	...........	-327.56
	1680	840.5	1.46985E+000	4.65110E-001	0.00000E+000	1.47155E+000	-1.23555E-004	12	...........	-327.56
	1722	861.5	1.42789E+000	3.92796E-001	0.00000E+000	1.42955E+000	-1.20188E-004	12	...........	-327.56
	1764	882.5	1.38600E+000	3.24240E-001	0.00000E+000	1.38755E+000	-1.18021E-004	12	...........	-327.56
	1806	903.5	1.34407E+000	2.58402E-001	0.00000E+000	1.34555E+000	-1.18421E-004	12	...........	-327.56
	1848	924.5	1.30194E+000	1.94978E-001	0.00000E+000	1.30355E+000	-1.19088E-004	11	...........	-327.56
	1890	945.5	1.26012E+000	1.38557E-001	0.00000E+000	1.26155E+000	-1.20421E-004	11	...........	-327.56
	1932	966.5	1.21815E+000	8.04366E-002	0.00000E+000	1.21955E+000	-1.23388E-004	11	...........	-327.56
	1974	987.5	1.17628E+000	4.62573E-002	0.00000E+000	1.17755E+000	-1.18588E-004	11	...........	-327.56
	2016	1008.5	1.13414E+000	2.32808E-002	0.00000E+000	1.13555E+000	-1.15721E-004	10	...........	-327.56
	2058	1029.5	1.09226E+000	1.10836E-002	0.00000E+000	1.09355E+000	-1.18788E-004	10	...........	-327.56
	2100	1050.5	1.05041E+000	6.18773E-003	0.00000E+000	1.05155E+000	-1.17955E-004	10	...........	-327.56
	2142	1071.5	1.00850E+000	4.24591E-003	0.00000E+000	1.00955E+000	-1.18988E-004	10	...........	-327.56
	2184	1092.5	9.66469E-001	3.69839E-003	0.00000E+000	9.67550E-001	-1.19288E-004	10	...........	-327.56
	2226	1113.5	9.24571E-001	3.28028E-003	0.00000E+000	9.25550E-001	-1.20955E-004	10	...........	-327.56
	2268	1134.5	8.82614E-001	3.10859E-003	0.00000E+000	8.83550E-001	-1.21888E-004	10	...........	-327.56
	2310	1155.5	8.40609E-001	2.94968E-003	0.00000E+000	8.41550E-001	-1.19221E-004	10	...........	-327.56
	2352	1176.5	7.98736E-001	2.69011E-003	0.00000E+000	7.99550E-001	-1.17088E-004	10	...........	-327.56
	2394	1197.5	7.56731E-001	2.51119E-003	0.00000E+000	7.57550E-001	-1.21688E-004	10	...........	-327.56
	2436	1218.5	7.14768E-001	2.46458E-003	0.00000E+000	7.15550E-001	-1.21321E-004	10	...........	-327.56
	2478	1239.5	6.72586E-001	2.33832E-003	0.00000E+000	6.73550E-001	-1.14055E-004	9	...........	-327.56
	2520	1260.5	6.30579E-001	2.07799E-003	0.00000E+000	6.31550E-001	-1.17888E-004	9	...........	-327.56
	2562	1281.5	5.88690E-001	2.04481E-003	0.00000E+000	5.89550E-001	-1.19188E-004	9	...........	-327.56
	2604	1302.5	5.46773E-001	1.52414E-003	0.00000E+000	5.47550E-001	-1.18355E-004	9	...........	-327.56
	2646	1323.5	5.04870E-001	8.20000E-004	0.00000E+000	5.05550E-001	-1.21555E-004	9	...........	-327.56
	2688	1344.5	4.63168E-001	-9.28994E-005	0.00000E+000	4.63550E-001	-1.15088E-004	8	...........	-327.56
	2730	1365.5	4.21203E-001	-8.40576E-004	0.00000E+000	4.21550E-001	-1.16655E-004	9	...........	-327.56
	2772	1386.5	3.79220E-001	-1.36682E-003	0.00000E+000	3.79550E-001	-1.20988E-004	9	...........	-327.56
	2814	1407.5	3.37397E-001	-2.02247E-003	0.00000E+000	3.37550E-001	-1.15088E-004	9	...........	-327.56
	2856	1428.5	2.95444E-001	-2.60744E-003	0.00000E+000	2.95550E-001	-1.06921E-004	9	...........	-327.56
	2898	1449.5	2.53227E-001	-2.99596E-003	0.00000E+000	2.53550E-001	-1.20155E-004	10	...........	-327.56
	2940	1470.5	2.11305E-001	-3.33493E-003	0.00000E+000	2.11550E-001	-1.19455E-004	10	...........	-327.56
	2982	1491.5	1.69279E-001	-3.52378E-003	0.00000E+000	1.69550E-001	-1.19688E-004	10	...........	-327.56
	3024	1512.5	1.27347E-001	-3.88451E-003	0.00000E+000	1.27550E-001	-1.17921E-004	10	...........	-327.56
	3066	1533.5	8.54641E-002	-4.32324E-003	0.00000E+000	8.55500E-002	-1.15488E-004	10	...........	-327.56
	3108	1554.5	4.34333E-002	-4.82974E-003	0.00000E+000	4.35500E-002	-1.19221E-004	10	...........	-327.56
	3150	1575.5	1.52015E-003	-5.34614E-003	0.00000E+000	1.55002E-003	-1.20855E-004	10	...........	-327.56
	3192	1596.5	-4.02448E-002	-5.91908E-003	0.00000E+000	-4.04500E-002	-1.17088E-004	10	...........	-327.56
	3234	1617.5	-8.22543E-002	-6.20608E-003	0.00000E+000	-8.24500E-002	-1.18855E-004	10	...........	-327.56
	3276	1638.5	-1.24133E-001	-6.39823E-003	0.00000E+000	-1.24450E-001	-1.13621E-004	10	...........	-327.56
	3318	1659.5	-1.66203E-001	-6.50254E-003	0.00000E+000	-1.66450E-001	-1.17321E-004	10	...........	-327.56
	3360	1680.5	-2.08076E-001	-6.91228E-003	0.00000E+000	-2.08450E-001	-1.19188E-004	10	...........	-327.56
	3402	1701.5	-2.50049E-001	-7.80864E-003	0.00000E+000	-2.50450E-001	-1.16555E-004	10	...........	-327.56
	3444	1722.5	-2.92051E-001	-9.88214E-003	0.00000E+000	-2.92450E-001	-1.20055E-004	10	...........	-327.56
	3486	1743.5	-3.33863E-001	-1.70317E-002	0.00000E+000	-3.34450E-001	-1.13421E-004	10	...........	-327.56
	3528	1764.5	-3.75951E-001	-3.49954E-002	0.00000E+000	-3.76450E-001	-1.16921E-004	11	...........	-327.56
	3570	1785.5	-4.17973E-001	-5.94017E-002	0.00000E+000	-4.18450E-001	-1.21688E-004	11	...........	-327.56
	3612	1806.5	-4.59895E-001	-6.77080E-002	0.00000E+000	-4.60450E-001	-1.18388E-004	11	...........	-327.56
	3654	1827.5	-5.01803E-001	-8.15204E-002	0.00000E+000	-5.02450E-001	-1.15021E-004	11	...........	-327.56
	3696	1848.5	-5.43694E-001	-1.41089E-001	0.00000E+000	-5.44450E-001	-1.18355E-004	11	...........	-327.56
	3738	1869.5	-5.85567E-001	-1.80171E-001	0.00000E+000	-5.86450E-001	-1.21088E-004	11	...........	-327.56
	3780	1890.5	-6.27559E-001	-1.61351E-001	0.00000E+000	-6.28450E-001	-1.16988E-004	11	...........	-327.56
	3822	1911.5	-6.69528E-001	-1.85516E-001	0.00000E+000	-6.70450E-001	-1.13388E-004	11	...........	-327.56
	3864	1932.5	-7.11375E-001	-2.36500E-001	0.00000E+000	-7.12450E-001	-1.09055E-004	11	...........	-327.56
	3906	1953.5	-7.53625E-001	-3.05915E-001	0.00000E+000	-7.54450E-001	-1.20055E-004	12	...........	-327.56
	3948	1974.5	-7.95499E-001	-3.69711E-001	0.00000E+000	-7.96450E-001	-1.16855E-004	12	...........	-327.56
	3990	1995.5	-8.37479E-001	-2.48165E-001	0.00000E+000	-8.38450E-001	-1.23121E-004	12	...........	-327.56
	4032	2016.5	-8.79462E-001	-2.94848E-001	0.00000E+000	-8.80450E-001	-1.17955E-004	12	...........	-327.56
	4074	2037.5	-9.21360E-001	-3.80774E-001	0.00000E+000	-9.22450E-001	-1.18255E-004	12	...........	-327.56
	4116	2058.5	-9.63220E-001	-4.58639E-001	0.00000E+000	-9.64450E-001	-1.16955E-004	12	...........	-327.56
	4152	2076.5	-9.99188E-001	-5.23244E-001	0.00000E+000	-1.00045E+000	-1.19221E-004	12	...........	-327.56
CURVE2	TABLE
	Pt	T	Vf	Im	Vu	Sig	Ach	IERange	Over	Temp
	#	s	V vs. Ref.	A	V	V	V	#	bits	deg C
	4153	2077	-9.97727E-001	-5.20090E-001	0.00000E+000	-9.99000E-001	-1.14788E-004	12	...........	-327.56
	4209	2105	-9.41793E-001	-4.31041E-001	0.00000E+000	-9.43000E-001	-1.17355E-004	12	...........	-327.56
	4265	2133	-8.85925E-001	-3.33558E-001	0.00000E+000	-8.87000E-001	-1.20421E-004	12	...........	-327.56
	4321	2161	-8.29829E-001	-2.29980E-001	0.00000E+000	-8.31000E-001	-1.09888E-004	11	...........	-327.56
	4377	2189	-7.74036E-001	-1.55450E-001	0.00000E+000	-7.75000E-001	-1.16721E-004	11	...........	-327.56
	4433	2217	-7.18167E-001	-8.07985E-002	0.00000E+000	-7.19000E-001	-1.17388E-004	11	...........	-327.56
	4489	2245	-6.62297E-001	-3.32341E-002	0.00000E+000	-6.63000E-001	-1.19421E-004	11	...........	-327.56
	4545	2273	-6.06501E-001	9.37080E-003	0.00000E+000	-6.07000E-001	-1.17455E-004	10	...........	-327.56
	4601	2301	-5.50562E-001	7.85315E-002	0.00000E+000	-5.51000E-001	-1.15088E-004	11	...........	-327.56
	4657	2329	-4.94829E-001	1.49163E-001	0.00000E+000	-4.95000E-001	-1.18621E-004	11	...........	-327.56
	4713	2357	-4.38897E-001	1.82211E-001	0.00000E+000	-4.39000E-001	-1.19255E-004	11	...........	-327.56
	4769	2385	-3.82982E-001	2.39518E-001	0.00000E+000	-3.83000E-001	-1.17488E-004	11	...........	-327.56
	4825	2413	-3.26908E-001	1.74591E-001	0.00000E+000	-3.27000E-001	-1.17088E-004	11	...........	-327.56
	4881	2441	-2.70753E-001	4.60493E-002	0.00000E+000	-2.71000E-001	-1.20188E-004	11	...........	-327.56
	4937	2469	-2.14894E-001	8.46839E-003	0.00000E+000	-2.15000E-001	-1.20055E-004	10	...........	-327.56
	4993	2497	-1.58878E-001	5.00794E-003	0.00000E+000	-1.59000E-001	-1.18921E-004	10	...........	-327.56
	5049	2525	-1.02937E-001	8.03068E-003	0.00000E+000	-1.03000E-001	-1.20455E-004	10	...........	-327.56
	5105	2553	-4.70930E-002	1.67942E-002	0.00000E+000	-4.70000E-002	-1.18955E-004	10	...........	-327.56
	5161	2581	8.79419E-003	5.02205E-002	0.00000E+000	9.00003E-003	-1.19188E-004	11	...........	-327.56
	5217	2609	6.45867E-002	1.03606E-001	0.00000E+000	6.50000E-002	-1.20355E-004	11	...........	-327.56
	5273	2637	1.20530E-001	1.17432E-001	0.00000E+000	1.21000E-001	-1.18221E-004	11	...........	-327.56
	5329	2665	1.76612E-001	5.46714E-002	0.00000E+000	1.77000E-001	-1.17288E-004	11	...........	-327.56
	5385	2693	2.32612E-001	4.43331E-002	0.00000E+000	2.33000E-001	-1.15388E-004	11	...........	-327.56
	5441	2721	2.88601E-001	4.37408E-002	0.00000E+000	2.89000E-001	-1.14555E-004	11	...........	-327.56
	5497	2749	3.44523E-001	4.51006E-002	0.00000E+000	3.45000E-001	-1.21655E-004	11	...........	-327.56
	5553	2777	4.00392E-001	3.42863E-002	0.00000E+000	4.01000E-001	-1.19421E-004	11	...........	-327.56
	5609	2805	4.56414E-001	2.81358E-002	0.00000E+000	4.57000E-001	-1.19921E-004	11	...........	-327.56
	5665	2833	5.12161E-001	2.02106E-002	0.00000E+000	5.13000E-001	-1.19155E-004	10	...........	-327.56
	5721	2861	5.68191E-001	1.65213E-002	0.00000E+000	5.69000E-001	-1.18721E-004	10	...........	-327.56
	5777	2889	6.24175E-001	1.50995E-002	0.00000E+000	6.25000E-001	-1.16021E-004	10	...........	-327.56
	5833	2917	6.80020E-001	1.44950E-002	0.00000E+000	6.81000E-001	-1.20521E-004	10	...........	-327.56
	5889	2945	7.35999E-001	1.41113E-002	0.00000E+000	7.37000E-001	-1.16055E-004	10	...........	-327.56
	5945	2973	7.91964E-001	1.46207E-002	0.00000E+000	7.93000E-001	-1.19655E-004	10	...........	-327.56
	6001	3001	8.47951E-001	1.45969E-002	0.00000E+000	8.49000E-001	-1.17955E-004	10	...........	-327.56
	6057	3029	9.03916E-001	1.51874E-002	0.00000E+000	9.05000E-001	-1.19488E-004	10	...........	-327.56
	6113	3057	9.59840E-001	1.56499E-002	0.00000E+000	9.61000E-001	-1.16955E-004	10	...........	-327.56
	6169	3085	1.01573E+000	1.78184E-002	0.00000E+000	1.01700E+000	-1.17321E-004	10	...........	-327.56
	6225	3113	1.07163E+000	2.00100E-002	0.00000E+000	1.07300E+000	-1.16955E-004	10	...........	-327.56
	6281	3141	1.12756E+000	2.22934E-002	0.00000E+000	1.12900E+000	-1.13821E-004	10	...........	-327.56
	6337	3169	1.18350E+000	2.34131E-002	0.00000E+000	1.18500E+000	-1.15755E-004	10	...........	-327.56
	6393	3197	1.23974E+000	3.35632E-002	0.00000E+000	1.24100E+000	-1.18488E-004	11	...........	-327.56
	6449	3225	1.29559E+000	5.36189E-002	0.00000E+000	1.29700E+000	-1.17121E-004	11	...........	-327.56
	6505	3253	1.35146E+000	1.01222E-001	0.00000E+000	1.35300E+000	-1.18055E-004	11	...........	-327.56
[...]
	9917	4959	-6.34178E-001	-1.39017E-002	0.00000E+000	-6.35000E-001	-1.19788E-004	10	...........	-327.56
	9945	4973	-6.06449E-001	4.63762E-003	0.00000E+000	-6.07000E-001	-1.21321E-004	10	...........	-327.56
	9973	4987	-5.78739E-001	2.63812E-002	0.00000E+000	-5.79000E-001	-1.16188E-004	10	...........	-327.56
	10001	5001	-5.50502E-001	4.24884E-002	0.00000E+000	-5.51000E-001	-1.18088E-004	11	...........	-327.56
	10029	5015	-5.22622E-001	6.43293E-002	0.00000E+000	-5.23000E-001	-1.19255E-004	11	...........	-327.56
	10057	5029	-4.94723E-001	9.51269E-002	0.00000E+000	-4.95000E-001	-1.16221E-004	11	...........	-327.56
	10085	5043	-4.66806E-001	1.35083E-001	0.00000E+000	-4.67000E-001	-1.18555E-004	11	...........	-327.56
	10113	5057	-4.38901E-001	1.79279E-001	0.00000E+000	-4.39000E-001	-1.15888E-004	11	...........	-327.56
	10141	5071	-4.10942E-001	2.16182E-001	0.00000E+000	-4.11000E-001	-1.19355E-004	11	...........	-327.56
	10169	5085	-3.82943E-001	2.12567E-001	0.00000E+000	-3.83000E-001	-1.19921E-004	11	...........	-327.56
	10197	5099	-3.54830E-001	1.42168E-001	0.00000E+000	-3.55000E-001	-1.18555E-004	11	...........	-327.56
	10225	5113	-3.26732E-001	8.09697E-002	0.00000E+000	-3.27000E-001	-1.17021E-004	11	...........	-327.56
	10253	5127	-2.98852E-001	1.65259E-002	0.00000E+000	-2.99000E-001	-1.20455E-004	10	...........	-327.56
	10281	5141	-2.70804E-001	9.87111E-003	0.00000E+000	-2.71000E-001	-1.22055E-004	10	...........	-327.56
	10309	5155	-2.42868E-001	6.60552E-003	0.00000E+000	-2.43000E-001	-1.20788E-004	10	...........	-327.56
	10337	5169	-2.14841E-001	4.26224E-003	0.00000E+000	-2.15000E-001	-1.20188E-004	10	...........	-327.56
	10365	5183	-1.86841E-001	3.48072E-003	0.00000E+000	-1.87000E-001	-1.18521E-004	10	...........	-327.56
	10393	5197	-1.58853E-001	3.69464E-003	0.00000E+000	-1.59000E-001	-1.18988E-004	10	...........	-327.56
	10421	5211	-1.30880E-001	4.61980E-003	0.00000E+000	-1.31000E-001	-1.20255E-004	10	...........	-327.56
	10449	5225	-1.02909E-001	6.19551E-003	0.00000E+000	-1.03000E-001	-1.23421E-004	10	...........	-327.56
	10477	5239	-7.49584E-002	8.34196E-003	0.00000E+000	-7.50000E-002	-1.17521E-004	10	...........	-327.56
	10505	5253	-4.70492E-002	1.38035E-002	0.00000E+000	-4.70000E-002	-1.18221E-004	10	...........	-327.56
	10533	5267	-1.92369E-002	2.59316E-002	0.00000E+000	-1.90000E-002	-1.17021E-004	10	...........	-327.56
	10561	5281	8.79190E-003	5.33580E-002	0.00000E+000	9.00003E-003	-1.24188E-004	11	...........	-327.56
	10589	5295	3.67485E-002	7.87659E-002	0.00000E+000	3.70000E-002	-1.21388E-004	11	...........	-327.56
	10617	5309	6.46015E-002	9.66138E-002	0.00000E+000	6.50000E-002	-1.16288E-004	11	...........	-327.56
	10645	5323	9.26809E-002	9.72761E-002	0.00000E+000	9.30000E-002	-1.20388E-004	11	...........	-327.56
	10673	5337	1.20603E-001	7.48724E-002	0.00000E+000	1.21000E-001	-1.21888E-004	11	...........	-327.56
	10701	5351	1.48690E-001	4.93420E-002	0.00000E+000	1.49000E-001	-1.22821E-004	11	...........	-327.56
	10729	5365	1.76628E-001	3.99063E-002	0.00000E+000	1.77000E-001	-1.16121E-004	11	...........	-327.56
	10757	5379	2.04669E-001	3.89693E-002	0.00000E+000	2.05000E-001	-1.23721E-004	11	...........	-327.56
	10785	5393	2.32620E-001	4.03389E-002	0.00000E+000	2.33000E-001	-1.14621E-004	11	...........	-327.56
	10813	5407	2.60627E-001	4.04354E-002	0.00000E+000	2.61000E-001	-1.15855E-004	11	...........	-327.56
	10841	5421	2.88605E-001	3.92380E-002	0.00000E+000	2.89000E-001	-1.16555E-004	11	...........	-327.56
	10869	5435	3.16548E-001	3.99218E-002	0.00000E+000	3.17000E-001	-1.20588E-004	11	...........	-327.56
	10897	5449	3.44537E-001	3.80009E-002	0.00000E+000	3.45000E-001	-1.18488E-004	11	...........	-327.56
	10925	5463	3.72408E-001	3.83963E-002	0.00000E+000	3.73000E-001	-1.26221E-004	11	...........	-327.56
	10953	5477	4.00409E-001	2.93428E-002	0.00000E+000	4.01000E-001	-1.26155E-004	11	...........	-327.56
	10981	5491	4.28422E-001	2.70366E-002	0.00000E+000	4.29000E-001	-1.21155E-004	11	...........	-327.56
	11009	5505	4.56426E-001	2.53687E-002	0.00000E+000	4.57000E-001	-1.20821E-004	11	...........	-327.56
	11037	5519	4.84159E-001	2.43187E-002	0.00000E+000	4.85000E-001	-1.20121E-004	10	...........	-327.56
	11065	5533	5.12171E-001	1.99415E-002	0.00000E+000	5.13000E-001	-1.18288E-004	10	...........	-327.56
	11093	5547	5.40178E-001	1.85596E-002	0.00000E+000	5.41000E-001	-1.21821E-004	10	...........	-327.56
	11121	5561	5.68186E-001	1.73234E-002	0.00000E+000	5.69000E-001	-1.19755E-004	10	...........	-327.56
	11149	5575	5.96175E-001	1.67710E-002	0.00000E+000	5.97000E-001	-1.20888E-004	10	...........	-327.56
	11177	5589	6.24161E-001	1.61909E-002	0.00000E+000	6.25000E-001	-1.18821E-004	10	...........	-327.56
	11205	5603	6.52133E-001	1.56097E-002	0.00000E+000	6.53000E-001	-1.21788E-004	10	...........	-327.56
	11233	5617	6.79997E-001	1.54556E-002	0.00000E+000	6.81000E-001	-1.19555E-004	10	...........	-327.56
	11261	5631	7.08053E-001	1.53302E-002	0.00000E+000	7.09000E-001	-1.17021E-004	10	...........	-327.56
	11289	5645	7.35985E-001	1.52161E-002	0.00000E+000	7.37000E-001	-1.21621E-004	10	...........	-327.56
	11317	5659	7.63994E-001	1.47198E-002	0.00000E+000	7.65000E-001	-1.19355E-004	10	...........	-327.56
	11345	5673	7.91968E-001	1.52083E-002	0.00000E+000	7.93000E-001	-1.19421E-004	10	...........	-327.56
	11373	5687	8.19949E-001	1.51965E-002	0.00000E+000	8.21000E-001	-1.14721E-004	10	...........	-327.56
	11401	5701	8.47953E-001	1.54412E-002	0.00000E+000	8.49000E-001	-1.19321E-004	10	...........	-327.56
	11429	5715	8.75926E-001	1.55958E-002	0.00000E+000	8.77000E-001	-1.16488E-004	10	...........	-327.56
	11457	5729	9.03925E-001	1.54924E-002	0.00000E+000	9.05000E-001	-1.17988E-004	10	...........	-327.56
	11485	5743	9.31858E-001	1.52680E-002	0.00000E+000	9.33000E-001	-1.15521E-004	10	...........	-327.56
	11513	5757	9.59846E-001	1.57117E-002	0.00000E+000	9.61000E-001	-1.14155E-004	10	...........	-327.56
	11541	5771	9.87730E-001	1.59342E-002	0.00000E+000	9.89000E-001	-1.18988E-004	10	...........	-327.56
	11569	5785	1.01576E+000	1.66601E-002	0.00000E+000	1.01700E+000	-1.18455E-004	10	...........	-327.56
	11597	5799	1.04368E+000	1.72831E-002	0.00000E+000	1.04500E+000	-1.16621E-004	10	...........	-327.56
	11625	5813	1.07165E+000	1.78341E-002	0.00000E+000	1.07300E+000	-1.17921E-004	10	...........	-327.56
	11653	5827	1.09964E+000	1.81172E-002	0.00000E+000	1.10100E+000	-1.18455E-004	10	...........	-327.56
	11681	5841	1.12760E+000	1.79401E-002	0.00000E+000	1.12900E+000	-1.18755E-004	10	...........	-327.56
	11709	5855	1.15561E+000	1.76264E-002	0.00000E+000	1.15700E+000	-1.15121E-004	10	...........	-327.56
	11737	5869	1.18357E+000	1.79789E-002	0.00000E+000	1.18500E+000	-1.16888E-004	10	...........	-327.56
	11765	5883	1.21158E+000	1.80776E-002	0.00000E+000	1.21300E+000	-1.17088E-004	10	...........	-327.56
	11793	5897	1.23952E+000	2.00699E-002	0.00000E+000	1.24100E+000	-1.17188E-004	10	...........	-327.56
	11821	5911	1.26738E+000	2.51036E-002	0.00000E+000	1.26900E+000	-1.14588E-004	10	...........	-327.56
	11849	5925	1.29561E+000	3.65147E-002	0.00000E+000	1.29700E+000	-1.22255E-004	11	...........	-327.56
	11877	5939	1.32359E+000	5.75570E-002	0.00000E+000	1.32500E+000	-1.20788E-004	11	...........	-327.56
	11905	5953	1.35148E+000	9.03880E-002	0.00000E+000	1.35300E+000	-1.23555E-004	11	...........	-327.56
	11933	5967	1.37945E+000	1.04532E-001	0.00000E+000	1.38100E+000	-1.17755E-004	11	...........	-327.56
	11961	5981	1.40739E+000	1.35081E-001	0.00000E+000	1.40900E+000	-1.18188E-004	11	...........	-327.56
	11989	5995	1.43531E+000	1.74860E-001	0.00000E+000	1.43700E+000	-1.17155E-004	11	...........	-327.56
	12017	6009	1.46324E+000	2.12828E-001	0.00000E+000	1.46500E+000	-1.13921E-004	11	...........	-327.56
	12045	6023	1.49115E+000	2.56860E-001	0.00000E+000	1.49300E+000	-1.17021E-004	11	...........	-327.56
	12073	6037	1.51939E+000	3.05785E-001	0.00000E+000	1.52100E+000	-1.21421E-004	12	...........	-327.56
	12101	6051	1.54729E+000	3.52169E-001	0.00000E+000	1.54900E+000	-1.20921E-004	12	...........	-327.56
	12129	6065	1.57513E+000	4.03681E-001	0.00000E+000	1.57700E+000	-1.20421E-004	12	...........	-327.56
	12157	6079	1.60314E+000	4.57774E-001	0.00000E+000	1.60500E+000	-1.18688E-004	12	...........	-327.56
	12185	6093	1.63108E+000	5.20397E-001	0.00000E+000	1.63300E+000	-1.18321E-004	12	...........	-327.56
	12213	6107	1.65907E+000	5.78822E-001	0.00000E+000	1.66100E+000	-1.16621E-004	12	...........	-327.56
	12241	6121	1.68698E+000	6.39066E-001	0.00000E+000	1.68900E+000	-1.19388E-004	12	...........	-327.56
	12252	6126.5	1.69798E+000	6.67924E-001	0.00000E+000	1.70000E+000	-1.19488E-004	12	...........	-327.56