File: testing/data/240902_19_MCL13_cspWE_CV2_750C_CO2.DTA
EXPLAIN
TAG	CV
TITLE	LABEL	Cyclic Voltammetry	Test Identifier
DATE	LABEL	9/3/2024	Date
TIME	LABEL	17:57:41	Time
NOTES	NOTES	5	Notes...
	cswWE - carbon steel wire
cspWE - carbon steel plate 2x2 tapered

Carbon steel plate counter electrode
Carbon steel wire reference electrode
PSTAT	PSTAT	REF3000-48128	Potentiostat
VINIT	POTEN	0.00000E+000	T	Initial E (V)
VLIMIT1	POTEN	1.70000E+000	F	Scan Limit 1 (V)
VLIMIT2	POTEN	-6.00000E-001	F	Scan Limit 2 (V)
VFINAL	POTEN	1.70000E+000	F	Final E (V)
SCANRATE	QUANT	2.00000E+000	Scan Rate (mV/s)
STEPSIZE	QUANT	1.00000E+000	Step Size (mV)
CYCLES	IQUANT	2	Cycles (#)
IMODE	SELECTOR	0	I/E Range Mode
IRANGE	QUANT	3.00000E-001	Max Current (mA)
AREA	QUANT	1.00000E+000	Sample Area (cm^2)
EQDELAY	QUANT	0.00000E+000	Equil. Time (s)
IRCOMP	SELECTOR	0	IRComp
PFCOR	QUANT	5.00000E+001	PF Corr. (ohm)
SAMPLINGMODE	SELECTOR	1	Sampling Mode
EOC	QUANT	-0.0297146	Open Circuit (V)
ELECTRODETYPE	SELECTOR	0	Electrode Type
STRIPPING	TOGGLE	F	Used for Stripping
SEQUENCER	TOGGLE	TRUE	Run as Sequence
PSTATMODEL	IQUANT	5	Pstat Model
PSTATSECTION	LABEL	REF3000-48128	Pstat Section
PSTATSERIALNO	LABEL	48128	Pstat Serial Number
CTRLMODE	IQUANT	1	Control Mode
ELECTROMETER	IQUANT	0	RE=0 or CS=1
IESTAB	IQUANT	2	I/E Stability
CASPEED	IQUANT	4	Control Amp Speed
CONVENTION	IQUANT	1	Current Convention
ICHRANGE	IQUANT	2	Ich Range
ICHRANGEMODE	TOGGLE	F	Ich Auto Range
ICHOFFSETENABLE	TOGGLE	F	Ich Offset Enable
ICHOFFSET	QUANT	0	Ich Offset (V)
ICHFILTER	IQUANT	3	Ich Filter
VCHRANGE	IQUANT	2	Vch Range
VCHRANGEMODE	TOGGLE	F	Vch Auto Range
VCHOFFSETENABLE	TOGGLE	F	Vch Offset Enable
VCHOFFSET	QUANT	0	Vch Offset (V)
VCHFILTER	IQUANT	3	Vch Filter
ACHRANGE	IQUANT	2	Ach Range
ACHOFFSETENABLE	TOGGLE	F	Ach Offset Enable
ACHOFFSET	QUANT	0	Ach Offset (V)
ACHFILTER	IQUANT	1	Ach Filter
IERANGELOWERLIMIT	IQUANT	2	I/E Range Lower Limit
IERANGEMODE	TOGGLE	T	I/E AutoRange
IERANGE	IQUANT	9	I/E Range
POSFEEDENABLE	TOGGLE	F	Positive Feedback IR Comp
POSFEEDRESISTANCE	QUANT	0	Positive Feedback Resistance (ohm)
ACHSELECT	IQUANT	4	Ach Select
SENSECABLEID	IQUANT	14	Sense Cable ID
PWRCABLEID	IQUANT	7	Power Cable ID
DCCALDATE	LABEL	8/16/2024	DC Calibration Date
ACCALDATE	LABEL	8/16/2024	AC Calibration Date
THERMOSELECT	IQUANT	1	Thermo Select
FRAMEWORKVERSION	LABEL	7.10.3	Framework Version
INSTRUMENTVERSION	LABEL	4.91	Instrument Version
COMMVERSION	LABEL	5.10	Communications Version
CPUPLDVERSION	LABEL	6.00	CPU PLD Version
CTRLPLDVERSION	LABEL	3.21	CTRL PLD Version
PSTATPLDVERSION	LABEL	0.00	PSTAT PLD Version
COMPLIANCEVOLTAGE	IQUANT	0	Compliance Voltage
CURVE1	TABLE
	Pt	T	Vf	Im	Vu	Sig	Ach	IERange	Over	Temp
	#	s	V vs. Ref.	A	V	V	V	#	bits	deg C
	0	0.5	-2.96498E-002	1.86713E-004	0.00000E+000	-2.97000E-002	-1.06055E-004	9	...........	-327.56
	41	21	1.09445E-002	2.02374E-003	0.00000E+000	1.13000E-002	-1.05488E-004	9	...........	-327.56
	82	41.5	5.21050E-002	3.93591E-003	0.00000E+000	5.23000E-002	-1.11921E-004	10	...........	-327.56
	123	62	9.30153E-002	5.98107E-003	0.00000E+000	9.33000E-002	-1.14288E-004	10	...........	-327.56
	164	82.5	1.33975E-001	9.06113E-003	0.00000E+000	1.34300E-001	-1.10721E-004	10	...........	-327.56
	205	103	1.74815E-001	1.43329E-002	0.00000E+000	1.75300E-001	-1.12721E-004	10	...........	-327.56
	246	123.5	2.15741E-001	2.06981E-002	0.00000E+000	2.16300E-001	-1.11788E-004	10	...........	-327.56
	287	144	2.56909E-001	2.94133E-002	0.00000E+000	2.57300E-001	-1.14421E-004	11	...........	-327.56
	328	164.5	2.97829E-001	4.30558E-002	0.00000E+000	2.98300E-001	-1.12221E-004	11	...........	-327.56
	369	185	3.38796E-001	5.93562E-002	0.00000E+000	3.39300E-001	-1.14955E-004	11	...........	-327.56
	410	205.5	3.79684E-001	8.29898E-002	0.00000E+000	3.80300E-001	-1.13021E-004	11	...........	-327.56
	451	226	4.20681E-001	1.12065E-001	0.00000E+000	4.21300E-001	-1.14988E-004	11	...........	-327.56
	492	246.5	4.61556E-001	1.50600E-001	0.00000E+000	4.62300E-001	-1.10055E-004	11	...........	-327.56
	533	267	5.02372E-001	1.99885E-001	0.00000E+000	5.03300E-001	-1.09655E-004	11	...........	-327.56
	574	287.5	5.43301E-001	2.58274E-001	0.00000E+000	5.44300E-001	-1.10521E-004	11	...........	-327.56
	615	308	5.84261E-001	2.46987E-001	0.00000E+000	5.85300E-001	-1.11055E-004	11	...........	-327.56
	656	328.5	6.25295E-001	2.16296E-001	0.00000E+000	6.26300E-001	-1.08421E-004	11	...........	-327.56
	697	349	6.66301E-001	1.90214E-001	0.00000E+000	6.67300E-001	-1.07855E-004	11	...........	-327.56
	738	369.5	7.07243E-001	1.63321E-001	0.00000E+000	7.08300E-001	-1.16655E-004	11	...........	-327.56
	779	390	7.48326E-001	1.25976E-001	0.00000E+000	7.49300E-001	-1.14455E-004	11	...........	-327.56
	820	410.5	7.89311E-001	9.84887E-002	0.00000E+000	7.90300E-001	-1.13088E-004	11	...........	-327.56
	861	431	8.30315E-001	8.12903E-002	0.00000E+000	8.31300E-001	-1.16221E-004	11	...........	-327.56
	902	451.5	8.71277E-001	6.96533E-002	0.00000E+000	8.72300E-001	-1.11488E-004	11	...........	-327.56
	943	472	9.12237E-001	6.48285E-002	0.00000E+000	9.13300E-001	-1.10055E-004	11	...........	-327.56
	984	492.5	9.53230E-001	6.26039E-002	0.00000E+000	9.54300E-001	-1.13188E-004	11	...........	-327.56
	1025	513	9.94173E-001	6.14547E-002	0.00000E+000	9.95300E-001	-1.11388E-004	11	...........	-327.56
	1066	533.5	1.03515E+000	6.23910E-002	0.00000E+000	1.03630E+000	-1.13355E-004	11	...........	-327.56
	1107	554	1.07611E+000	6.53228E-002	0.00000E+000	1.07730E+000	-1.15255E-004	11	...........	-327.56
	1148	574.5	1.11703E+000	7.11537E-002	0.00000E+000	1.11830E+000	-1.11255E-004	11	...........	-327.56
	1189	595	1.15802E+000	8.30813E-002	0.00000E+000	1.15930E+000	-1.08688E-004	11	...........	-327.56
	1230	615.5	1.19889E+000	1.08289E-001	0.00000E+000	1.20030E+000	-1.09355E-004	11	...........	-327.56
	1271	636	1.23987E+000	1.58306E-001	0.00000E+000	1.24130E+000	-1.15988E-004	11	...........	-327.56
	1312	656.5	1.28068E+000	2.35289E-001	0.00000E+000	1.28230E+000	-1.08555E-004	11	...........	-327.56
	1353	677	1.32179E+000	3.31586E-001	0.00000E+000	1.32330E+000	-1.13488E-004	12	...........	-327.56
	1394	697.5	1.36269E+000	4.65518E-001	0.00000E+000	1.36430E+000	-1.10721E-004	12	...........	-327.56
	1435	718	1.40353E+000	6.08185E-001	0.00000E+000	1.40530E+000	-1.10755E-004	12	...........	-327.56
	1476	738.5	1.44444E+000	7.55915E-001	0.00000E+000	1.44630E+000	-1.15588E-004	12	...........	-327.56
	1517	759	1.48530E+000	8.99925E-001	0.00000E+000	1.48730E+000	-1.10488E-004	12	...........	-327.56
	1558	779.5	1.52615E+000	1.06685E+000	0.00000E+000	1.52830E+000	-1.13988E-004	12	...........	-327.56
	1599	800	1.56705E+000	1.23141E+000	0.00000E+000	1.56930E+000	-1.10021E-004	12	...........	-327.56
	1640	820.5	1.60793E+000	1.36358E+000	0.00000E+000	1.61030E+000	-1.13955E-004	12	...........	-327.56
	1681	841	1.64886E+000	1.51065E+000	0.00000E+000	1.65130E+000	-1.14121E-004	12	...........	-327.56
	1722	861.5	1.68977E+000	1.64985E+000	0.00000E+000	1.69230E+000	-1.11055E-004	12	...........	-327.56
	1763	882	1.66479E+000	1.58178E+000	0.00000E+000	1.66730E+000	-1.11921E-004	12	...........	-327.56
	1804	902.5	1.62393E+000	1.45754E+000	0.00000E+000	1.62630E+000	-1.09921E-004	12	...........	-327.56
	1845	923	1.58295E+000	1.32979E+000	0.00000E+000	1.58530E+000	-1.12288E-004	12	...........	-327.56
	1886	943.5	1.54209E+000	1.17669E+000	0.00000E+000	1.54430E+000	-1.08588E-004	12	...........	-327.56
	1927	964	1.50114E+000	1.04661E+000	0.00000E+000	1.50330E+000	-1.07621E-004	12	...........	-327.56
	1968	984.5	1.46030E+000	9.11111E-001	0.00000E+000	1.46230E+000	-1.16521E-004	12	...........	-327.56
	2009	1005	1.41945E+000	7.97021E-001	0.00000E+000	1.42130E+000	-1.12321E-004	12	...........	-327.56
	2050	1025.5	1.37851E+000	6.77820E-001	0.00000E+000	1.38030E+000	-1.10755E-004	12	...........	-327.56
	2091	1046	1.33762E+000	5.60103E-001	0.00000E+000	1.33930E+000	-1.14521E-004	12	...........	-327.56
	2132	1066.5	1.29672E+000	4.49629E-001	0.00000E+000	1.29830E+000	-1.09155E-004	12	...........	-327.56
	2173	1087	1.25590E+000	3.52075E-001	0.00000E+000	1.25730E+000	-1.13521E-004	12	...........	-327.56
	2214	1107.5	1.21498E+000	2.44249E-001	0.00000E+000	1.21630E+000	-1.10821E-004	12	...........	-327.56
	2255	1128	1.17387E+000	1.40853E-001	0.00000E+000	1.17530E+000	-1.09121E-004	11	...........	-327.56
	2296	1148.5	1.13303E+000	8.44227E-002	0.00000E+000	1.13430E+000	-1.07355E-004	11	...........	-327.56
	2337	1169	1.09208E+000	6.42842E-002	0.00000E+000	1.09330E+000	-1.11521E-004	11	...........	-327.56
	2378	1189.5	1.05117E+000	5.71080E-002	0.00000E+000	1.05230E+000	-1.10955E-004	11	...........	-327.56
	2419	1210	1.01023E+000	5.23423E-002	0.00000E+000	1.01130E+000	-1.12155E-004	11	...........	-327.56
	2460	1230.5	9.69187E-001	4.80714E-002	0.00000E+000	9.70300E-001	-1.10955E-004	11	...........	-327.56
	2501	1251	9.28278E-001	4.63401E-002	0.00000E+000	9.29300E-001	-1.13521E-004	11	...........	-327.56
	2542	1271.5	8.87285E-001	4.43574E-002	0.00000E+000	8.88300E-001	-1.08955E-004	11	...........	-327.56
	2583	1292	8.46372E-001	4.05608E-002	0.00000E+000	8.47300E-001	-1.11388E-004	11	...........	-327.56
	2624	1312.5	8.05463E-001	3.87785E-002	0.00000E+000	8.06300E-001	-1.11855E-004	11	...........	-327.56
	2665	1333	7.64418E-001	3.81525E-002	0.00000E+000	7.65300E-001	-1.11188E-004	11	...........	-327.56
	2706	1353.5	7.23514E-001	3.53325E-002	0.00000E+000	7.24300E-001	-1.10821E-004	11	...........	-327.56
	2747	1374	6.82519E-001	3.28386E-002	0.00000E+000	6.83300E-001	-1.11721E-004	11	...........	-327.56
	2788	1394.5	6.41590E-001	3.17234E-002	0.00000E+000	6.42300E-001	-1.11488E-004	11	...........	-327.56
	2829	1415	6.00670E-001	2.84498E-002	0.00000E+000	6.01300E-001	-1.11621E-004	11	...........	-327.56
	2870	1435.5	5.59392E-001	2.41683E-002	0.00000E+000	5.60300E-001	-1.06488E-004	10	...........	-327.56
	2911	1456	5.18519E-001	1.86744E-002	0.00000E+000	5.19300E-001	-1.12788E-004	10	...........	-327.56
	2952	1476.5	4.77598E-001	1.27731E-002	0.00000E+000	4.78300E-001	-1.05788E-004	10	...........	-327.56
	2993	1497	4.36779E-001	6.11895E-003	0.00000E+000	4.37300E-001	-1.10955E-004	10	...........	-327.56
	3034	1517.5	3.95983E-001	-9.91604E-004	0.00000E+000	3.96300E-001	-1.09855E-004	9	...........	-327.56
	3075	1538	3.54973E-001	-8.02510E-003	0.00000E+000	3.55300E-001	-1.08521E-004	10	...........	-327.56
	3116	1558.5	3.14108E-001	-1.47953E-002	0.00000E+000	3.14300E-001	-1.07288E-004	10	...........	-327.56
	3157	1579	2.73188E-001	-2.13534E-002	0.00000E+000	2.73300E-001	-1.04521E-004	10	...........	-327.56
	3198	1599.5	2.32371E-001	-2.67439E-002	0.00000E+000	2.32300E-001	-9.42548E-005	10	...........	-327.56
	3239	1620	1.91112E-001	-3.78263E-002	0.00000E+000	1.91300E-001	-1.07188E-004	11	...........	-327.56
	3280	1640.5	1.50090E-001	-3.55652E-002	0.00000E+000	1.50300E-001	-1.08288E-004	11	...........	-327.56
	3321	1661	1.09160E-001	-3.70927E-002	0.00000E+000	1.09300E-001	-1.09388E-004	11	...........	-327.56
	3362	1681.5	6.81796E-002	-3.87112E-002	0.00000E+000	6.83000E-002	-1.15055E-004	11	...........	-327.56
	3403	1702	2.72647E-002	-3.90562E-002	0.00000E+000	2.73000E-002	-1.16121E-004	11	...........	-327.56
	3444	1722.5	-1.35304E-002	-3.78971E-002	0.00000E+000	-1.36999E-002	-1.16255E-004	11	...........	-327.56
	3485	1743	-5.45020E-002	-3.48094E-002	0.00000E+000	-5.47000E-002	-1.11388E-004	11	...........	-327.56
	3526	1763.5	-9.54612E-002	-2.95752E-002	0.00000E+000	-9.57000E-002	-1.07521E-004	11	...........	-327.56
	3567	1784	-1.36488E-001	-2.47062E-002	0.00000E+000	-1.36700E-001	-1.11055E-004	11	...........	-327.56
	3608	1804.5	-1.77153E-001	-2.19999E-002	0.00000E+000	-1.77700E-001	-1.06455E-004	10	...........	-327.56
	3649	1825	-2.18157E-001	-2.07270E-002	0.00000E+000	-2.18700E-001	-1.01288E-004	10	...........	-327.56
	3690	1845.5	-2.59143E-001	-2.19920E-002	0.00000E+000	-2.59700E-001	-1.08755E-004	10	...........	-327.56
	3731	1866	-2.99992E-001	-2.60270E-002	0.00000E+000	-3.00700E-001	-9.64548E-005	10	...........	-327.56
	3772	1886.5	-3.41279E-001	-4.08056E-002	0.00000E+000	-3.41700E-001	-1.09955E-004	11	...........	-327.56
	3813	1907	-3.82073E-001	-1.05609E-001	0.00000E+000	-3.82700E-001	-1.10455E-004	11	...........	-327.56
	3854	1927.5	-4.22977E-001	-1.68144E-001	0.00000E+000	-4.23700E-001	-1.09755E-004	11	...........	-327.56
	3895	1948	-4.63795E-001	-2.64256E-001	0.00000E+000	-4.64700E-001	-9.82548E-005	11	...........	-327.56
	3936	1968.5	-5.04962E-001	-3.46177E-001	0.00000E+000	-5.05700E-001	-1.08321E-004	12	...........	-327.56
	3977	1989	-5.45923E-001	-4.31338E-001	0.00000E+000	-5.46700E-001	-1.13155E-004	12	...........	-327.56
	4018	2009.5	-5.86767E-001	-5.34228E-001	0.00000E+000	-5.87700E-001	-1.11955E-004	12	...........	-327.56
	4030	2015.5	-5.98821E-001	-5.62617E-001	0.00000E+000	-5.99700E-001	-1.10321E-004	12	...........	-327.56
CURVE2	TABLE
	Pt	T	Vf	Im	Vu	Sig	Ach	IERange	Over	Temp
	#	s	V vs. Ref.	A	V	V	V	#	bits	deg C
	4031	2016	-5.98114E-001	-5.60531E-001	0.00000E+000	-5.99000E-001	-1.09655E-004	12	...........	-327.56
	4078	2039.5	-5.51185E-001	-4.13336E-001	0.00000E+000	-5.52000E-001	-1.13155E-004	12	...........	-327.56
	4125	2063	-5.04296E-001	-2.89779E-001	0.00000E+000	-5.05000E-001	-1.07021E-004	12	...........	-327.56
	4172	2086.5	-4.57219E-001	-1.84096E-001	0.00000E+000	-4.58000E-001	-1.09755E-004	11	...........	-327.56
	4219	2110	-4.10445E-001	-8.57051E-002	0.00000E+000	-4.11000E-001	-1.10888E-004	11	...........	-327.56
	4266	2133.5	-3.63690E-001	5.86015E-003	0.00000E+000	-3.64000E-001	-1.09388E-004	10	...........	-327.56
	4313	2157	-3.16810E-001	6.62914E-002	0.00000E+000	-3.17000E-001	-1.08288E-004	11	...........	-327.56
	4360	2180.5	-2.69767E-001	6.97834E-002	0.00000E+000	-2.70000E-001	-1.10988E-004	11	...........	-327.56
	4407	2204	-2.22785E-001	5.18417E-002	0.00000E+000	-2.23000E-001	-1.12855E-004	11	...........	-327.56
	4454	2227.5	-1.75838E-001	5.63014E-002	0.00000E+000	-1.76000E-001	-1.11255E-004	11	...........	-327.56
	4501	2251	-1.28924E-001	6.75266E-002	0.00000E+000	-1.29000E-001	-1.12121E-004	11	...........	-327.56
	4548	2274.5	-8.20454E-002	8.47132E-002	0.00000E+000	-8.20000E-002	-1.12555E-004	11	...........	-327.56
	4595	2298	-3.51257E-002	9.71977E-002	0.00000E+000	-3.50000E-002	-1.13188E-004	11	...........	-327.56
	4642	2321.5	1.17105E-002	1.11927E-001	0.00000E+000	1.20000E-002	-1.12088E-004	11	...........	-327.56
	4689	2345	5.86230E-002	1.48906E-001	0.00000E+000	5.90000E-002	-1.16055E-004	11	...........	-327.56
	4736	2368.5	1.05442E-001	2.17480E-001	0.00000E+000	1.06000E-001	-1.12455E-004	11	...........	-327.56
	4783	2392	1.52543E-001	2.92743E-001	0.00000E+000	1.53000E-001	-1.14188E-004	12	...........	-327.56
	4830	2415.5	1.99464E-001	3.64547E-001	0.00000E+000	2.00000E-001	-1.13588E-004	12	...........	-327.56
	4877	2439	2.46365E-001	4.20426E-001	0.00000E+000	2.47000E-001	-1.16655E-004	12	...........	-327.56
	4924	2462.5	2.93534E-001	2.40398E-001	0.00000E+000	2.94000E-001	-1.14055E-004	12	...........	-327.56
	4971	2486	3.40237E-001	2.16243E-001	0.00000E+000	3.41000E-001	-1.10955E-004	11	...........	-327.56
	5018	2509.5	3.87191E-001	2.20892E-001	0.00000E+000	3.88000E-001	-1.11221E-004	11	...........	-327.56
	5065	2533	4.34086E-001	2.51511E-001	0.00000E+000	4.35000E-001	-1.11355E-004	11	...........	-327.56
	5112	2556.5	4.81291E-001	3.04201E-001	0.00000E+000	4.82000E-001	-1.12588E-004	12	...........	-327.56
	5159	2580	5.28175E-001	3.49958E-001	0.00000E+000	5.29000E-001	-1.14155E-004	12	...........	-327.56
	5206	2603.5	5.75194E-001	3.50708E-001	0.00000E+000	5.76000E-001	-1.13821E-004	12	...........	-327.56
	5253	2627	6.22212E-001	3.00596E-001	0.00000E+000	6.23000E-001	-1.16121E-004	12	...........	-327.56
	5300	2650.5	6.68942E-001	2.34635E-001	0.00000E+000	6.70000E-001	-1.12221E-004	11	...........	-327.56
	5347	2674	7.15985E-001	1.70044E-001	0.00000E+000	7.17000E-001	-1.11321E-004	11	...........	-327.56
	5394	2697.5	7.63052E-001	1.22385E-001	0.00000E+000	7.64000E-001	-1.16788E-004	11	...........	-327.56
	5441	2721	8.09978E-001	9.20306E-002	0.00000E+000	8.11000E-001	-1.09321E-004	11	...........	-327.56
	5488	2744.5	8.57023E-001	7.56875E-002	0.00000E+000	8.58000E-001	-1.12688E-004	11	...........	-327.56
	5535	2768	9.03996E-001	6.87714E-002	0.00000E+000	9.05000E-001	-1.12455E-004	11	...........	-327.56
	5582	2791.5	9.50926E-001	6.52371E-002	0.00000E+000	9.52000E-001	-1.11755E-004	11	...........	-327.56
	5629	2815	9.97862E-001	6.33621E-002	0.00000E+000	9.99000E-001	-1.15255E-004	11	...........	-327.56
	5676	2838.5	1.04482E+000	6.75981E-002	0.00000E+000	1.04600E+000	-1.11455E-004	11	...........	-327.56
	5723	2862	1.09175E+000	8.58362E-002	0.00000E+000	1.09300E+000	-1.14921E-004	11	...........	-327.56
	5770	2885.5	1.13867E+000	1.10971E-001	0.00000E+000	1.14000E+000	-1.14488E-004	11	...........	-327.56
	5817	2909	1.18556E+000	1.70130E-001	0.00000E+000	1.18700E+000	-1.12821E-004	11	...........	-327.56
	5864	2932.5	1.23236E+000	2.69620E-001	0.00000E+000	1.23400E+000	-1.08288E-004	11	...........	-327.56
	5911	2956	1.27949E+000	4.12260E-001	0.00000E+000	1.28100E+000	-1.11955E-004	12	...........	-327.56
	5958	2979.5	1.32635E+000	5.98525E-001	0.00000E+000	1.32800E+000	-1.17121E-004	12	...........	-327.56
	6005	3003	1.37313E+000	7.77842E-001	0.00000E+000	1.37500E+000	-1.13421E-004	12	...........	-327.56
	6052	3026.5	1.42006E+000	9.52920E-001	0.00000E+000	1.42200E+000	-1.17088E-004	12	...........	-327.56
[...]
	8919	4460	-3.10784E-001	7.64598E-002	0.00000E+000	-3.11000E-001	-1.09955E-004	11	...........	-327.56
	8943	4472	-2.86789E-001	4.41294E-002	0.00000E+000	-2.87000E-001	-1.16088E-004	11	...........	-327.56
	8967	4484	-2.62779E-001	2.88951E-002	0.00000E+000	-2.63000E-001	-1.13221E-004	11	...........	-327.56
	8991	4496	-2.38800E-001	2.76613E-002	0.00000E+000	-2.39000E-001	-1.12155E-004	11	...........	-327.56
	9015	4508	-2.14834E-001	3.06214E-002	0.00000E+000	-2.15000E-001	-1.12855E-004	11	...........	-327.56
	9039	4520	-1.90886E-001	3.57315E-002	0.00000E+000	-1.91000E-001	-1.18855E-004	11	...........	-327.56
	9063	4532	-1.66837E-001	4.22471E-002	0.00000E+000	-1.67000E-001	-1.15888E-004	11	...........	-327.56
	9087	4544	-1.42858E-001	4.98213E-002	0.00000E+000	-1.43000E-001	-1.14655E-004	11	...........	-327.56
	9111	4556	-1.18891E-001	6.00353E-002	0.00000E+000	-1.19000E-001	-1.14288E-004	11	...........	-327.56
	9135	4568	-9.49586E-002	7.06653E-002	0.00000E+000	-9.50000E-002	-1.14621E-004	11	...........	-327.56
	9159	4580	-7.09805E-002	8.00527E-002	0.00000E+000	-7.10000E-002	-1.14121E-004	11	...........	-327.56
	9183	4592	-4.70067E-002	8.93369E-002	0.00000E+000	-4.70000E-002	-1.14488E-004	11	...........	-327.56
	9207	4604	-2.30345E-002	9.98440E-002	0.00000E+000	-2.30000E-002	-1.16921E-004	11	...........	-327.56
	9231	4616	6.80889E-004	1.10878E-001	0.00000E+000	1.00005E-003	-1.13821E-004	11	...........	-327.56
	9255	4628	2.46485E-002	1.22966E-001	0.00000E+000	2.50000E-002	-1.09155E-004	11	...........	-327.56
	9279	4640	4.86093E-002	1.38263E-001	0.00000E+000	4.90000E-002	-1.10288E-004	11	...........	-327.56
	9303	4652	7.25538E-002	1.61832E-001	0.00000E+000	7.30000E-002	-1.11188E-004	11	...........	-327.56
	9327	4664	9.64928E-002	1.89547E-001	0.00000E+000	9.70000E-002	-1.10621E-004	11	...........	-327.56
	9351	4676	1.20366E-001	2.20903E-001	0.00000E+000	1.21000E-001	-1.10488E-004	11	...........	-327.56
	9375	4688	1.44288E-001	2.46622E-001	0.00000E+000	1.45000E-001	-1.09555E-004	11	...........	-327.56
	9399	4700	1.68217E-001	2.67376E-001	0.00000E+000	1.69000E-001	-1.08355E-004	11	...........	-327.56
	9423	4712	1.92478E-001	2.86821E-001	0.00000E+000	1.93000E-001	-1.16988E-004	12	...........	-327.56
	9447	4724	2.16377E-001	2.03909E-001	0.00000E+000	2.17000E-001	-1.11855E-004	11	...........	-327.56
	9471	4736	2.40445E-001	1.59705E-001	0.00000E+000	2.41000E-001	-1.11488E-004	11	...........	-327.56
	9495	4748	2.64439E-001	1.56415E-001	0.00000E+000	2.65000E-001	-1.12355E-004	11	...........	-327.56
	9519	4760	2.88408E-001	1.57620E-001	0.00000E+000	2.89000E-001	-1.10321E-004	11	...........	-327.56
	9543	4772	3.12357E-001	1.60607E-001	0.00000E+000	3.13000E-001	-1.10288E-004	11	...........	-327.56
	9567	4784	3.36330E-001	1.64636E-001	0.00000E+000	3.37000E-001	-1.10788E-004	11	...........	-327.56
	9591	4796	3.60284E-001	1.72326E-001	0.00000E+000	3.61000E-001	-1.13255E-004	11	...........	-327.56
	9615	4808	3.84231E-001	1.85540E-001	0.00000E+000	3.85000E-001	-1.12021E-004	11	...........	-327.56
	9639	4820	4.08183E-001	2.04072E-001	0.00000E+000	4.09000E-001	-1.15755E-004	11	...........	-327.56
	9663	4832	4.32144E-001	2.26480E-001	0.00000E+000	4.33000E-001	-1.12055E-004	11	...........	-327.56
	9687	4844	4.56083E-001	2.53482E-001	0.00000E+000	4.57000E-001	-1.14088E-004	11	...........	-327.56
	9711	4856	4.80286E-001	2.86134E-001	0.00000E+000	4.81000E-001	-1.14555E-004	12	...........	-327.56
	9735	4868	5.04247E-001	3.14649E-001	0.00000E+000	5.05000E-001	-1.16055E-004	12	...........	-327.56
	9759	4880	5.28189E-001	3.28051E-001	0.00000E+000	5.29000E-001	-1.17555E-004	12	...........	-327.56
	9783	4892	5.52154E-001	3.24274E-001	0.00000E+000	5.53000E-001	-1.16455E-004	12	...........	-327.56
	9807	4904	5.76163E-001	3.03337E-001	0.00000E+000	5.77000E-001	-1.12855E-004	12	...........	-327.56
	9831	4916	6.00250E-001	2.73703E-001	0.00000E+000	6.01000E-001	-1.13355E-004	12	...........	-327.56
	9855	4928	6.23967E-001	2.36618E-001	0.00000E+000	6.25000E-001	-1.14221E-004	11	...........	-327.56
	9879	4940	6.48020E-001	2.00315E-001	0.00000E+000	6.49000E-001	-1.11488E-004	11	...........	-327.56
	9903	4952	6.72057E-001	1.62231E-001	0.00000E+000	6.73000E-001	-1.11055E-004	11	...........	-327.56
	9927	4964	6.96103E-001	1.29336E-001	0.00000E+000	6.97000E-001	-1.16821E-004	11	...........	-327.56
	9951	4976	7.20100E-001	1.03907E-001	0.00000E+000	7.21000E-001	-1.12988E-004	11	...........	-327.56
	9975	4988	7.44103E-001	8.74239E-002	0.00000E+000	7.45000E-001	-1.14655E-004	11	...........	-327.56
	9999	5000	7.68082E-001	7.57161E-002	0.00000E+000	7.69000E-001	-1.11588E-004	11	...........	-327.56
	10023	5012	7.92060E-001	6.84268E-002	0.00000E+000	7.93000E-001	-1.14455E-004	11	...........	-327.56
	10047	5024	8.16043E-001	6.34236E-002	0.00000E+000	8.17000E-001	-1.12321E-004	11	...........	-327.56
	10071	5036	8.40037E-001	5.92494E-002	0.00000E+000	8.41000E-001	-1.12555E-004	11	...........	-327.56
	10095	5048	8.63990E-001	5.60329E-002	0.00000E+000	8.65000E-001	-1.17955E-004	11	...........	-327.56
	10119	5060	8.87964E-001	5.48598E-002	0.00000E+000	8.89000E-001	-1.17021E-004	11	...........	-327.56
	10143	5072	9.11955E-001	5.43232E-002	0.00000E+000	9.13000E-001	-1.14855E-004	11	...........	-327.56
	10167	5084	9.35933E-001	5.42071E-002	0.00000E+000	9.37000E-001	-1.15155E-004	11	...........	-327.56
	10191	5096	9.59954E-001	5.34220E-002	0.00000E+000	9.61000E-001	-1.12588E-004	11	...........	-327.56
	10215	5108	9.83937E-001	5.32572E-002	0.00000E+000	9.85000E-001	-1.12855E-004	11	...........	-327.56
	10239	5120	1.00793E+000	5.39418E-002	0.00000E+000	1.00900E+000	-1.17321E-004	11	...........	-327.56
	10263	5132	1.03190E+000	5.60966E-002	0.00000E+000	1.03300E+000	-1.15488E-004	11	...........	-327.56
	10287	5144	1.05589E+000	6.01103E-002	0.00000E+000	1.05700E+000	-1.12455E-004	11	...........	-327.56
	10311	5156	1.07987E+000	6.76066E-002	0.00000E+000	1.08100E+000	-1.13221E-004	11	...........	-327.56
	10335	5168	1.10382E+000	7.91539E-002	0.00000E+000	1.10500E+000	-1.13921E-004	11	...........	-327.56
	10359	5180	1.12771E+000	9.63627E-002	0.00000E+000	1.12900E+000	-1.11988E-004	11	...........	-327.56
	10383	5192	1.15161E+000	1.22311E-001	0.00000E+000	1.15300E+000	-1.14321E-004	11	...........	-327.56
	10407	5204	1.17555E+000	1.55331E-001	0.00000E+000	1.17700E+000	-1.11955E-004	11	...........	-327.56
	10431	5216	1.19945E+000	1.93369E-001	0.00000E+000	1.20100E+000	-1.13788E-004	11	...........	-327.56
	10455	5228	1.22339E+000	2.38796E-001	0.00000E+000	1.22500E+000	-1.14688E-004	11	...........	-327.56
	10479	5240	1.24758E+000	2.90811E-001	0.00000E+000	1.24900E+000	-1.10388E-004	12	...........	-327.56
	10503	5252	1.27152E+000	3.50895E-001	0.00000E+000	1.27300E+000	-1.10955E-004	12	...........	-327.56
	10527	5264	1.29545E+000	4.19338E-001	0.00000E+000	1.29700E+000	-1.15255E-004	12	...........	-327.56
	10551	5276	1.31936E+000	4.94358E-001	0.00000E+000	1.32100E+000	-1.18355E-004	12	...........	-327.56
	10575	5288	1.34336E+000	5.74080E-001	0.00000E+000	1.34500E+000	-1.18188E-004	12	...........	-327.56
	10599	5300	1.36729E+000	6.55316E-001	0.00000E+000	1.36900E+000	-1.17388E-004	12	...........	-327.56
	10623	5312	1.39119E+000	7.55085E-001	0.00000E+000	1.39300E+000	-1.17421E-004	12	...........	-327.56
	10647	5324	1.41511E+000	8.50895E-001	0.00000E+000	1.41700E+000	-1.08955E-004	12	...........	-327.56
	10671	5336	1.43904E+000	9.56719E-001	0.00000E+000	1.44100E+000	-1.12021E-004	12	...........	-327.56
	10695	5348	1.46295E+000	1.05213E+000	0.00000E+000	1.46500E+000	-1.10588E-004	12	...........	-327.56
	10719	5360	1.48687E+000	1.15206E+000	0.00000E+000	1.48900E+000	-1.19155E-004	12	...........	-327.56
	10743	5372	1.51079E+000	1.24324E+000	0.00000E+000	1.51300E+000	-1.11955E-004	12	...........	-327.56
	10767	5384	1.53473E+000	1.32983E+000	0.00000E+000	1.53700E+000	-1.14921E-004	12	...........	-327.56
	10791	5396	1.55864E+000	1.41404E+000	0.00000E+000	1.56100E+000	-1.09455E-004	12	...........	-327.56
	10815	5408	1.58261E+000	1.50270E+000	0.00000E+000	1.58500E+000	-1.16588E-004	12	...........	-327.56
	10839	5420	1.60653E+000	1.57892E+000	0.00000E+000	1.60900E+000	-1.13921E-004	12	...........	-327.56
	10863	5432	1.63048E+000	1.65954E+000	0.00000E+000	1.63300E+000	-1.18355E-004	12	...........	-327.56
	10887	5444	1.65444E+000	1.72072E+000	0.00000E+000	1.65700E+000	-1.15421E-004	12	...........	-327.56
	10911	5456	1.67837E+000	1.79319E+000	0.00000E+000	1.68100E+000	-1.15555E-004	12	...........	-327.56
	10930	5465.5	1.69745E+000	1.84473E+000	0.00000E+000	1.70000E+000	-1.16155E-004	12	...........	-327.56