File: testing/data/240902_06_MCL13_cswWE_CV2_750C_CO2.DTA
EXPLAIN
TAG	CV
TITLE	LABEL	Cyclic Voltammetry	Test Identifier
DATE	LABEL	9/2/2024	Date
TIME	LABEL	20:48:29	Time
NOTES	NOTES	5	Notes...
	cswWE - carbon steel wire
cspWE - carbon steel plate 2x2 tapered

Carbon steel plate counter electrode
Carbon steel wire reference electrode
PSTAT	PSTAT	REF3000-48128	Potentiostat
VINIT	POTEN	0.00000E+000	T	Initial E (V)
VLIMIT1	POTEN	1.70000E+000	F	Scan Limit 1 (V)
VLIMIT2	POTEN	-1.00000E+000	F	Scan Limit 2 (V)
VFINAL	POTEN	1.70000E+000	F	Final E (V)
SCANRATE	QUANT	2.00000E+000	Scan Rate (mV/s)
STEPSIZE	QUANT	1.00000E+000	Step Size (mV)
CYCLES	IQUANT	2	Cycles (#)
IMODE	SELECTOR	0	I/E Range Mode
IRANGE	QUANT	3.00000E-001	Max Current (mA)
AREA	QUANT	1.00000E+000	Sample Area (cm^2)
EQDELAY	QUANT	0.00000E+000	Equil. Time (s)
IRCOMP	SELECTOR	0	IRComp
PFCOR	QUANT	5.00000E+001	PF Corr. (ohm)
SAMPLINGMODE	SELECTOR	1	Sampling Mode
EOC	QUANT	0.1104682	Open Circuit (V)
ELECTRODETYPE	SELECTOR	0	Electrode Type
STRIPPING	TOGGLE	F	Used for Stripping
SEQUENCER	TOGGLE	TRUE	Run as Sequence
PSTATMODEL	IQUANT	5	Pstat Model
PSTATSECTION	LABEL	REF3000-48128	Pstat Section
PSTATSERIALNO	LABEL	48128	Pstat Serial Number
CTRLMODE	IQUANT	1	Control Mode
ELECTROMETER	IQUANT	0	RE=0 or CS=1
IESTAB	IQUANT	2	I/E Stability
CASPEED	IQUANT	4	Control Amp Speed
CONVENTION	IQUANT	1	Current Convention
ICHRANGE	IQUANT	2	Ich Range
ICHRANGEMODE	TOGGLE	F	Ich Auto Range
ICHOFFSETENABLE	TOGGLE	F	Ich Offset Enable
ICHOFFSET	QUANT	0	Ich Offset (V)
ICHFILTER	IQUANT	3	Ich Filter
VCHRANGE	IQUANT	2	Vch Range
VCHRANGEMODE	TOGGLE	F	Vch Auto Range
VCHOFFSETENABLE	TOGGLE	F	Vch Offset Enable
VCHOFFSET	QUANT	0	Vch Offset (V)
VCHFILTER	IQUANT	3	Vch Filter
ACHRANGE	IQUANT	2	Ach Range
ACHOFFSETENABLE	TOGGLE	F	Ach Offset Enable
ACHOFFSET	QUANT	0	Ach Offset (V)
ACHFILTER	IQUANT	1	Ach Filter
IERANGELOWERLIMIT	IQUANT	2	I/E Range Lower Limit
IERANGEMODE	TOGGLE	T	I/E AutoRange
IERANGE	IQUANT	9	I/E Range
POSFEEDENABLE	TOGGLE	F	Positive Feedback IR Comp
POSFEEDRESISTANCE	QUANT	0	Positive Feedback Resistance (ohm)
ACHSELECT	IQUANT	4	Ach Select
SENSECABLEID	IQUANT	14	Sense Cable ID
PWRCABLEID	IQUANT	7	Power Cable ID
DCCALDATE	LABEL	8/16/2024	DC Calibration Date
ACCALDATE	LABEL	8/16/2024	AC Calibration Date
THERMOSELECT	IQUANT	1	Thermo Select
FRAMEWORKVERSION	LABEL	7.10.3	Framework Version
INSTRUMENTVERSION	LABEL	4.91	Instrument Version
COMMVERSION	LABEL	5.10	Communications Version
CPUPLDVERSION	LABEL	6.00	CPU PLD Version
CTRLPLDVERSION	LABEL	3.21	CTRL PLD Version
PSTATPLDVERSION	LABEL	0.00	PSTAT PLD Version
COMPLIANCEVOLTAGE	IQUANT	0	Compliance Voltage
CURVE1	TABLE
	Pt	T	Vf	Im	Vu	Sig	Ach	IERange	Over	Temp
	#	s	V vs. Ref.	A	V	V	V	#	bits	deg C
	0	0.5	1.10181E-001	4.00046E-004	0.00000E+000	1.10450E-001	-8.47214E-005	9	...........	-327.56
	44	22.5	1.54014E-001	1.04877E-002	0.00000E+000	1.54450E-001	-9.36881E-005	10	...........	-327.56
	88	44.5	1.97865E-001	1.88666E-002	0.00000E+000	1.98450E-001	-8.89548E-005	10	...........	-327.56
	132	66.5	2.42083E-001	2.79066E-002	0.00000E+000	2.42450E-001	-9.54548E-005	11	...........	-327.56
	176	88.5	2.86013E-001	3.78995E-002	0.00000E+000	2.86450E-001	-9.57548E-005	11	...........	-327.56
	220	110.5	3.29894E-001	5.08605E-002	0.00000E+000	3.30450E-001	-9.47881E-005	11	...........	-327.56
	264	132.5	3.73837E-001	4.00536E-002	0.00000E+000	3.74450E-001	-9.31214E-005	11	...........	-327.56
	308	154.5	4.17688E-001	2.16711E-002	0.00000E+000	4.18450E-001	-9.30881E-005	10	...........	-327.56
	352	176.5	4.61607E-001	2.17440E-002	0.00000E+000	4.62450E-001	-9.09548E-005	10	...........	-327.56
	396	198.5	5.05548E-001	2.37608E-002	0.00000E+000	5.06450E-001	-9.39881E-005	10	...........	-327.56
	440	220.5	5.49525E-001	2.40973E-002	0.00000E+000	5.50450E-001	-9.20548E-005	10	...........	-327.56
	484	242.5	5.93514E-001	2.36430E-002	0.00000E+000	5.94450E-001	-9.37214E-005	10	...........	-327.56
	528	264.5	6.37423E-001	2.32177E-002	0.00000E+000	6.38450E-001	-8.80548E-005	10	...........	-327.56
	572	286.5	6.81418E-001	2.26090E-002	0.00000E+000	6.82450E-001	-9.02881E-005	10	...........	-327.56
	616	308.5	7.25395E-001	2.18647E-002	0.00000E+000	7.26450E-001	-9.31548E-005	10	...........	-327.56
	660	330.5	7.69355E-001	2.12194E-002	0.00000E+000	7.70450E-001	-9.36881E-005	10	...........	-327.56
	704	352.5	8.13282E-001	2.06509E-002	0.00000E+000	8.14450E-001	-9.23881E-005	10	...........	-327.56
	748	374.5	8.57257E-001	2.04613E-002	0.00000E+000	8.58450E-001	-9.14214E-005	10	...........	-327.56
	792	396.5	9.01231E-001	2.09434E-002	0.00000E+000	9.02450E-001	-9.25214E-005	10	...........	-327.56
	836	418.5	9.45084E-001	2.30560E-002	0.00000E+000	9.46450E-001	-9.27214E-005	10	...........	-327.56
	880	440.5	9.89287E-001	2.95653E-002	0.00000E+000	9.90450E-001	-9.34548E-005	11	...........	-327.56
	924	462.5	1.03329E+000	4.02473E-002	0.00000E+000	1.03445E+000	-9.32214E-005	11	...........	-327.56
	968	484.5	1.07722E+000	5.05210E-002	0.00000E+000	1.07845E+000	-9.55548E-005	11	...........	-327.56
	1012	506.5	1.12117E+000	4.80362E-002	0.00000E+000	1.12245E+000	-9.38548E-005	11	...........	-327.56
	1056	528.5	1.16506E+000	4.64138E-002	0.00000E+000	1.16645E+000	-8.87214E-005	11	...........	-327.56
	1100	550.5	1.20907E+000	6.77423E-002	0.00000E+000	1.21045E+000	-9.24548E-005	11	...........	-327.56
	1144	572.5	1.25297E+000	1.05637E-001	0.00000E+000	1.25445E+000	-9.59214E-005	11	...........	-327.56
	1188	594.5	1.29680E+000	1.65937E-001	0.00000E+000	1.29845E+000	-9.40214E-005	11	...........	-327.56
	1232	616.5	1.34066E+000	2.52937E-001	0.00000E+000	1.34245E+000	-9.04548E-005	11	...........	-327.56
	1276	638.5	1.38480E+000	3.56238E-001	0.00000E+000	1.38645E+000	-9.53881E-005	12	...........	-327.56
	1320	660.5	1.42872E+000	4.74404E-001	0.00000E+000	1.43045E+000	-9.62881E-005	12	...........	-327.56
	1364	682.5	1.47252E+000	5.94683E-001	0.00000E+000	1.47445E+000	-9.16214E-005	12	...........	-327.56
	1408	704.5	1.51649E+000	7.14412E-001	0.00000E+000	1.51845E+000	-9.37214E-005	12	...........	-327.56
	1452	726.5	1.56031E+000	8.32906E-001	0.00000E+000	1.56245E+000	-9.57881E-005	12	...........	-327.56
	1496	748.5	1.60418E+000	9.48384E-001	0.00000E+000	1.60645E+000	-9.50214E-005	12	...........	-327.56
	1540	770.5	1.64814E+000	1.06071E+000	0.00000E+000	1.65045E+000	-9.35214E-005	12	...........	-327.56
	1584	792.5	1.69203E+000	1.17917E+000	0.00000E+000	1.69445E+000	-9.14214E-005	12	...........	-327.56
	1628	814.5	1.65807E+000	1.10192E+000	0.00000E+000	1.66045E+000	-9.34548E-005	12	...........	-327.56
	1672	836.5	1.61423E+000	1.00068E+000	0.00000E+000	1.61645E+000	-9.38214E-005	12	...........	-327.56
	1716	858.5	1.57031E+000	8.95546E-001	0.00000E+000	1.57245E+000	-9.34881E-005	12	...........	-327.56
	1760	880.5	1.52635E+000	7.88053E-001	0.00000E+000	1.52845E+000	-9.36214E-005	12	...........	-327.56
	1804	902.5	1.48251E+000	6.80100E-001	0.00000E+000	1.48445E+000	-9.21881E-005	12	...........	-327.56
	1848	924.5	1.43864E+000	5.78976E-001	0.00000E+000	1.44045E+000	-8.76214E-005	12	...........	-327.56
	1892	946.5	1.39471E+000	4.78132E-001	0.00000E+000	1.39645E+000	-9.35881E-005	12	...........	-327.56
	1936	968.5	1.35078E+000	3.83047E-001	0.00000E+000	1.35245E+000	-8.84881E-005	12	...........	-327.56
	1980	990.5	1.30696E+000	2.92449E-001	0.00000E+000	1.30845E+000	-9.44214E-005	12	...........	-327.56
	2024	1012.5	1.26283E+000	2.07443E-001	0.00000E+000	1.26445E+000	-9.33548E-005	11	...........	-327.56
	2068	1034.5	1.21892E+000	1.37735E-001	0.00000E+000	1.22045E+000	-9.53214E-005	11	...........	-327.56
	2112	1056.5	1.17503E+000	8.75668E-002	0.00000E+000	1.17645E+000	-9.00881E-005	11	...........	-327.56
	2156	1078.5	1.13116E+000	5.35124E-002	0.00000E+000	1.13245E+000	-9.16881E-005	11	...........	-327.56
	2200	1100.5	1.08726E+000	3.14699E-002	0.00000E+000	1.08845E+000	-9.88214E-005	11	...........	-327.56
	2244	1122.5	1.04309E+000	2.01284E-002	0.00000E+000	1.04445E+000	-9.03548E-005	10	...........	-327.56
	2288	1144.5	9.99159E-001	1.63310E-002	0.00000E+000	1.00045E+000	-8.95881E-005	10	...........	-327.56
	2332	1166.5	9.55245E-001	1.48819E-002	0.00000E+000	9.56450E-001	-9.43881E-005	10	...........	-327.56
	2376	1188.5	9.11232E-001	1.41157E-002	0.00000E+000	9.12450E-001	-9.56214E-005	10	...........	-327.56
	2420	1210.5	8.67313E-001	1.37628E-002	0.00000E+000	8.68450E-001	-9.38548E-005	10	...........	-327.56
	2464	1232.5	8.23395E-001	1.34100E-002	0.00000E+000	8.24450E-001	-9.10214E-005	10	...........	-327.56
	2508	1254.5	7.79456E-001	1.38241E-002	0.00000E+000	7.80450E-001	-9.21881E-005	10	...........	-327.56
	2552	1276.5	7.35430E-001	1.34656E-002	0.00000E+000	7.36450E-001	-8.95548E-005	10	...........	-327.56
	2596	1298.5	6.91532E-001	1.29556E-002	0.00000E+000	6.92450E-001	-9.14214E-005	10	...........	-327.56
	2640	1320.5	6.47591E-001	1.25189E-002	0.00000E+000	6.48450E-001	-9.18214E-005	10	...........	-327.56
	2684	1342.5	6.03552E-001	1.22154E-002	0.00000E+000	6.04450E-001	-9.22214E-005	10	...........	-327.56
	2728	1364.5	5.59624E-001	1.16427E-002	0.00000E+000	5.60450E-001	-9.18881E-005	10	...........	-327.56
	2772	1386.5	5.15714E-001	1.06284E-002	0.00000E+000	5.16450E-001	-8.90214E-005	10	...........	-327.56
	2816	1408.5	4.71830E-001	9.40536E-003	0.00000E+000	4.72450E-001	-9.16214E-005	10	...........	-327.56
	2860	1430.5	4.27806E-001	7.77830E-003	0.00000E+000	4.28450E-001	-9.35214E-005	10	...........	-327.56
	2904	1452.5	3.83895E-001	5.95357E-003	0.00000E+000	3.84450E-001	-9.19548E-005	10	...........	-327.56
	2948	1474.5	3.39963E-001	3.86052E-003	0.00000E+000	3.40450E-001	-9.15214E-005	10	...........	-327.56
	2992	1496.5	2.95920E-001	1.11891E-003	0.00000E+000	2.96450E-001	-9.22881E-005	9	...........	-327.56
	3036	1518.5	2.52165E-001	-7.20754E-004	0.00000E+000	2.52450E-001	-9.40214E-005	9	...........	-327.56
	3080	1540.5	2.08315E-001	-1.50600E-003	0.00000E+000	2.08450E-001	-9.29214E-005	9	...........	-327.56
	3124	1562.5	1.64493E-001	-2.48106E-003	0.00000E+000	1.64450E-001	-8.22881E-005	9	...........	-327.56
	3168	1584.5	1.20221E-001	-4.30317E-003	0.00000E+000	1.20450E-001	-9.45548E-005	10	...........	-327.56
	3212	1606.5	7.63099E-002	-5.71047E-003	0.00000E+000	7.64500E-002	-9.18881E-005	10	...........	-327.56
	3256	1628.5	3.24008E-002	-6.74693E-003	0.00000E+000	3.24500E-002	-8.98881E-005	10	...........	-327.56
	3300	1650.5	-1.14169E-002	-7.57765E-003	0.00000E+000	-1.15500E-002	-9.41214E-005	10	...........	-327.56
	3344	1672.5	-5.53514E-002	-8.44700E-003	0.00000E+000	-5.55500E-002	-9.17881E-005	10	...........	-327.56
	3388	1694.5	-9.92783E-002	-9.44728E-003	0.00000E+000	-9.95500E-002	-9.25214E-005	10	...........	-327.56
	3432	1716.5	-1.43218E-001	-8.93719E-003	0.00000E+000	-1.43550E-001	-9.07548E-005	10	...........	-327.56
	3476	1738.5	-1.87247E-001	-8.90750E-003	0.00000E+000	-1.87550E-001	-9.71548E-005	10	...........	-327.56
	3520	1760.5	-2.31179E-001	-9.92080E-003	0.00000E+000	-2.31550E-001	-9.36881E-005	10	...........	-327.56
	3564	1782.5	-2.75061E-001	-1.19871E-002	0.00000E+000	-2.75550E-001	-9.48881E-005	10	...........	-327.56
	3608	1804.5	-3.19037E-001	-1.63149E-002	0.00000E+000	-3.19550E-001	-9.26548E-005	10	...........	-327.56
	3652	1826.5	-3.63128E-001	-2.71978E-002	0.00000E+000	-3.63550E-001	-9.73548E-005	11	...........	-327.56
	3696	1848.5	-4.07017E-001	-4.87013E-002	0.00000E+000	-4.07550E-001	-9.34881E-005	11	...........	-327.56
	3740	1870.5	-4.50936E-001	-8.54432E-002	0.00000E+000	-4.51550E-001	-9.22548E-005	11	...........	-327.56
	3784	1892.5	-4.94860E-001	-1.57963E-001	0.00000E+000	-4.95550E-001	-9.35881E-005	11	...........	-327.56
	3828	1914.5	-5.38616E-001	-2.33861E-001	0.00000E+000	-5.39550E-001	-8.60881E-005	11	...........	-327.56
	3872	1936.5	-5.82505E-001	-2.59698E-001	0.00000E+000	-5.83550E-001	-8.12548E-005	11	...........	-327.56
	3916	1958.5	-6.26827E-001	-2.87641E-001	0.00000E+000	-6.27550E-001	-9.20214E-005	12	...........	-327.56
	3960	1980.5	-6.70730E-001	-3.40705E-001	0.00000E+000	-6.71550E-001	-9.61214E-005	12	...........	-327.56
	4004	2002.5	-7.14627E-001	-3.78389E-001	0.00000E+000	-7.15550E-001	-9.39548E-005	12	...........	-327.56
	4048	2024.5	-7.58501E-001	-4.57450E-001	0.00000E+000	-7.59550E-001	-9.26214E-005	12	...........	-327.56
	4092	2046.5	-8.02527E-001	-4.88430E-001	0.00000E+000	-8.03550E-001	-9.44881E-005	12	...........	-327.56
	4136	2068.5	-8.46381E-001	-5.76079E-001	0.00000E+000	-8.47550E-001	-9.18881E-005	12	...........	-327.56
	4180	2090.5	-8.90228E-001	-6.77204E-001	0.00000E+000	-8.91550E-001	-9.86214E-005	12	...........	-327.56
	4224	2112.5	-9.34185E-001	-7.83028E-001	0.00000E+000	-9.35550E-001	-9.07548E-005	12	...........	-327.56
	4268	2134.5	-9.78091E-001	-8.26422E-001	0.00000E+000	-9.79550E-001	-9.48214E-005	12	...........	-327.56
	4288	2144.5	-9.98059E-001	-8.12846E-001	0.00000E+000	-9.99550E-001	-9.00548E-005	12	...........	-327.56
CURVE2	TABLE
	Pt	T	Vf	Im	Vu	Sig	Ach	IERange	Over	Temp
	#	s	V vs. Ref.	A	V	V	V	#	bits	deg C
	4289	2145	-9.97524E-001	-8.06809E-001	0.00000E+000	-9.99000E-001	-9.12881E-005	12	...........	-327.56
	4345	2173	-9.41667E-001	-5.82521E-001	0.00000E+000	-9.43000E-001	-9.26548E-005	12	...........	-327.56
	4401	2201	-8.85827E-001	-4.56159E-001	0.00000E+000	-8.87000E-001	-8.57548E-005	12	...........	-327.56
	4457	2229	-8.30015E-001	-3.70647E-001	0.00000E+000	-8.31000E-001	-9.57214E-005	12	...........	-327.56
	4513	2257	-7.74090E-001	-3.15239E-001	0.00000E+000	-7.75000E-001	-9.37214E-005	12	...........	-327.56
	4569	2285	-7.17941E-001	-2.15537E-001	0.00000E+000	-7.19000E-001	-8.74881E-005	11	...........	-327.56
	4625	2313	-6.62185E-001	-9.32993E-002	0.00000E+000	-6.63000E-001	-9.10214E-005	11	...........	-327.56
	4681	2341	-6.06445E-001	2.99118E-002	0.00000E+000	-6.07000E-001	-9.50214E-005	11	...........	-327.56
	4737	2369	-5.50613E-001	1.10840E-001	0.00000E+000	-5.51000E-001	-9.06214E-005	11	...........	-327.56
	4793	2397	-4.94832E-001	1.54966E-001	0.00000E+000	-4.95000E-001	-9.26881E-005	11	...........	-327.56
	4849	2425	-4.38944E-001	2.09949E-001	0.00000E+000	-4.39000E-001	-9.10214E-005	11	...........	-327.56
	4905	2453	-3.82998E-001	2.46325E-001	0.00000E+000	-3.83000E-001	-8.78881E-005	11	...........	-327.56
	4961	2481	-3.27005E-001	2.44882E-001	0.00000E+000	-3.27000E-001	-9.02548E-005	11	...........	-327.56
	5017	2509	-2.70952E-001	1.49996E-001	0.00000E+000	-2.71000E-001	-9.45214E-005	11	...........	-327.56
	5073	2537	-2.14970E-001	1.09524E-001	0.00000E+000	-2.15000E-001	-9.54881E-005	11	...........	-327.56
	5129	2565	-1.58950E-001	7.83315E-002	0.00000E+000	-1.59000E-001	-9.46881E-005	11	...........	-327.56
	5185	2593	-1.02940E-001	5.96052E-002	0.00000E+000	-1.03000E-001	-9.43214E-005	11	...........	-327.56
	5241	2621	-4.70165E-002	7.46957E-002	0.00000E+000	-4.70000E-002	-9.88214E-005	11	...........	-327.56
	5297	2649	8.65556E-003	1.31722E-001	0.00000E+000	9.00003E-003	-9.28548E-005	11	...........	-327.56
	5353	2677	6.45096E-002	1.52378E-001	0.00000E+000	6.50000E-002	-9.13548E-005	11	...........	-327.56
	5409	2705	1.20468E-001	1.44871E-001	0.00000E+000	1.21000E-001	-9.68548E-005	11	...........	-327.56
	5465	2733	1.76480E-001	1.23804E-001	0.00000E+000	1.77000E-001	-9.44548E-005	11	...........	-327.56
	5521	2761	2.32476E-001	1.20923E-001	0.00000E+000	2.33000E-001	-9.81214E-005	11	...........	-327.56
	5577	2789	2.88416E-001	1.41043E-001	0.00000E+000	2.89000E-001	-9.31214E-005	11	...........	-327.56
	5633	2817	3.44324E-001	1.52633E-001	0.00000E+000	3.45000E-001	-9.33881E-005	11	...........	-327.56
	5689	2845	4.00195E-001	1.51346E-001	0.00000E+000	4.01000E-001	-9.63214E-005	11	...........	-327.56
	5745	2873	4.56267E-001	1.11055E-001	0.00000E+000	4.57000E-001	-9.38214E-005	11	...........	-327.56
	5801	2901	5.12227E-001	8.96373E-002	0.00000E+000	5.13000E-001	-9.43214E-005	11	...........	-327.56
	5857	2929	5.68257E-001	7.01795E-002	0.00000E+000	5.69000E-001	-9.33548E-005	11	...........	-327.56
	5913	2957	6.24235E-001	5.93318E-002	0.00000E+000	6.25000E-001	-9.59881E-005	11	...........	-327.56
	5969	2985	6.80091E-001	5.01956E-002	0.00000E+000	6.81000E-001	-9.56881E-005	11	...........	-327.56
	6025	3013	7.36072E-001	4.58889E-002	0.00000E+000	7.37000E-001	-9.55881E-005	11	...........	-327.56
	6081	3041	7.92039E-001	4.36627E-002	0.00000E+000	7.93000E-001	-9.57881E-005	11	...........	-327.56
	6137	3069	8.48019E-001	4.18833E-002	0.00000E+000	8.49000E-001	-9.77214E-005	11	...........	-327.56
	6193	3097	9.03986E-001	4.00885E-002	0.00000E+000	9.05000E-001	-9.93881E-005	11	...........	-327.56
	6249	3125	9.59921E-001	3.95000E-002	0.00000E+000	9.61000E-001	-9.55214E-005	11	...........	-327.56
	6305	3153	1.01589E+000	4.19930E-002	0.00000E+000	1.01700E+000	-9.60214E-005	11	...........	-327.56
	6361	3181	1.07180E+000	5.02883E-002	0.00000E+000	1.07300E+000	-9.30548E-005	11	...........	-327.56
	6417	3209	1.12769E+000	5.82284E-002	0.00000E+000	1.12900E+000	-9.74548E-005	11	...........	-327.56
	6473	3237	1.18370E+000	4.90923E-002	0.00000E+000	1.18500E+000	-9.35548E-005	11	...........	-327.56
	6529	3265	1.23962E+000	7.23482E-002	0.00000E+000	1.24100E+000	-9.41548E-005	11	...........	-327.56
	6585	3293	1.29539E+000	1.45204E-001	0.00000E+000	1.29700E+000	-9.47881E-005	11	...........	-327.56
	6641	3321	1.35117E+000	2.46407E-001	0.00000E+000	1.35300E+000	-9.07881E-005	11	...........	-327.56
	6697	3349	1.40733E+000	3.61904E-001	0.00000E+000	1.40900E+000	-9.84548E-005	12	...........	-327.56
[...]
	10053	5027	-6.34301E-001	-3.47288E-002	0.00000E+000	-6.35000E-001	-9.74881E-005	11	...........	-327.56
	10081	5041	-6.06609E-001	1.96131E-002	0.00000E+000	-6.07000E-001	-9.26881E-005	10	...........	-327.56
	10109	5055	-5.78519E-001	7.37381E-002	0.00000E+000	-5.79000E-001	-9.26548E-005	11	...........	-327.56
	10137	5069	-5.50557E-001	7.98008E-002	0.00000E+000	-5.51000E-001	-8.95214E-005	11	...........	-327.56
	10165	5083	-5.22658E-001	9.11203E-002	0.00000E+000	-5.23000E-001	-9.44548E-005	11	...........	-327.56
	10193	5097	-4.94796E-001	1.34535E-001	0.00000E+000	-4.95000E-001	-9.40881E-005	11	...........	-327.56
	10221	5111	-4.66860E-001	1.74766E-001	0.00000E+000	-4.67000E-001	-9.03881E-005	11	...........	-327.56
	10249	5125	-4.38925E-001	1.98670E-001	0.00000E+000	-4.39000E-001	-9.02881E-005	11	...........	-327.56
	10277	5139	-4.10944E-001	2.15586E-001	0.00000E+000	-4.11000E-001	-9.41548E-005	11	...........	-327.56
	10305	5153	-3.82965E-001	2.29704E-001	0.00000E+000	-3.83000E-001	-8.75214E-005	11	...........	-327.56
	10333	5167	-3.54927E-001	2.03631E-001	0.00000E+000	-3.55000E-001	-9.57548E-005	11	...........	-327.56
	10361	5181	-3.26895E-001	1.63871E-001	0.00000E+000	-3.27000E-001	-9.26214E-005	11	...........	-327.56
	10389	5195	-2.98830E-001	1.03484E-001	0.00000E+000	-2.99000E-001	-9.45548E-005	11	...........	-327.56
	10417	5209	-2.70791E-001	6.07166E-002	0.00000E+000	-2.71000E-001	-9.31881E-005	11	...........	-327.56
	10445	5223	-2.42865E-001	3.88188E-002	0.00000E+000	-2.43000E-001	-8.87881E-005	11	...........	-327.56
	10473	5237	-2.14847E-001	2.78041E-002	0.00000E+000	-2.15000E-001	-9.56548E-005	11	...........	-327.56
	10501	5251	-1.87113E-001	2.34892E-002	0.00000E+000	-1.87000E-001	-9.60548E-005	10	...........	-327.56
	10529	5265	-1.59107E-001	2.32837E-002	0.00000E+000	-1.59000E-001	-9.35214E-005	10	...........	-327.56
	10557	5279	-1.31183E-001	2.59305E-002	0.00000E+000	-1.31000E-001	-9.18881E-005	10	...........	-327.56
	10585	5293	-1.02894E-001	3.08494E-002	0.00000E+000	-1.03000E-001	-9.63548E-005	11	...........	-327.56
	10613	5307	-7.49302E-002	3.78876E-002	0.00000E+000	-7.50000E-002	-9.64881E-005	11	...........	-327.56
	10641	5321	-4.69916E-002	5.92964E-002	0.00000E+000	-4.70000E-002	-9.52881E-005	11	...........	-327.56
	10669	5335	-1.90430E-002	8.96612E-002	0.00000E+000	-1.90000E-002	-9.53881E-005	11	...........	-327.56
	10697	5349	8.67652E-003	1.20941E-001	0.00000E+000	9.00003E-003	-9.18881E-005	11	...........	-327.56
	10725	5363	3.66464E-002	1.49637E-001	0.00000E+000	3.70000E-002	-9.28548E-005	11	...........	-327.56
	10753	5377	6.44648E-002	1.70440E-001	0.00000E+000	6.50000E-002	-9.34214E-005	11	...........	-327.56
	10781	5391	9.24546E-002	1.77363E-001	0.00000E+000	9.30000E-002	-9.45881E-005	11	...........	-327.56
	10809	5405	1.20468E-001	1.45655E-001	0.00000E+000	1.21000E-001	-9.66548E-005	11	...........	-327.56
	10837	5419	1.48495E-001	1.24792E-001	0.00000E+000	1.49000E-001	-9.71881E-005	11	...........	-327.56
	10865	5433	1.76479E-001	1.26184E-001	0.00000E+000	1.77000E-001	-9.85881E-005	11	...........	-327.56
	10893	5447	2.04468E-001	1.23362E-001	0.00000E+000	2.05000E-001	-9.58214E-005	11	...........	-327.56
	10921	5461	2.32451E-001	1.25622E-001	0.00000E+000	2.33000E-001	-9.44548E-005	11	...........	-327.56
	10949	5475	2.60411E-001	1.40608E-001	0.00000E+000	2.61000E-001	-9.57548E-005	11	...........	-327.56
	10977	5489	2.88423E-001	1.35445E-001	0.00000E+000	2.89000E-001	-9.32214E-005	11	...........	-327.56
	11005	5503	3.16319E-001	1.50701E-001	0.00000E+000	3.17000E-001	-9.29881E-005	11	...........	-327.56
	11033	5517	3.44308E-001	1.58490E-001	0.00000E+000	3.45000E-001	-9.24881E-005	11	...........	-327.56
	11061	5531	3.72140E-001	1.82426E-001	0.00000E+000	3.73000E-001	-9.78881E-005	11	...........	-327.56
	11089	5545	4.00151E-001	1.69370E-001	0.00000E+000	4.01000E-001	-9.52548E-005	11	...........	-327.56
	11117	5559	4.28258E-001	1.17460E-001	0.00000E+000	4.29000E-001	-9.75214E-005	11	...........	-327.56
	11145	5573	4.56265E-001	1.12393E-001	0.00000E+000	4.57000E-001	-9.81881E-005	11	...........	-327.56
	11173	5587	4.84250E-001	1.07469E-001	0.00000E+000	4.85000E-001	-9.55881E-005	11	...........	-327.56
	11201	5601	5.12222E-001	9.83074E-002	0.00000E+000	5.13000E-001	-9.66214E-005	11	...........	-327.56
	11229	5615	5.40245E-001	8.45229E-002	0.00000E+000	5.41000E-001	-9.78881E-005	11	...........	-327.56
	11257	5629	5.68255E-001	7.47757E-002	0.00000E+000	5.69000E-001	-9.70881E-005	11	...........	-327.56
	11285	5643	5.96246E-001	6.74727E-002	0.00000E+000	5.97000E-001	-9.61214E-005	11	...........	-327.56
	11313	5657	6.24242E-001	6.02677E-002	0.00000E+000	6.25000E-001	-9.61548E-005	11	...........	-327.56
	11341	5671	6.52199E-001	5.50941E-002	0.00000E+000	6.53000E-001	-9.68548E-005	11	...........	-327.56
	11369	5685	6.80093E-001	5.20103E-002	0.00000E+000	6.81000E-001	-9.88548E-005	11	...........	-327.56
	11397	5699	7.08140E-001	4.99041E-002	0.00000E+000	7.09000E-001	-9.75881E-005	11	...........	-327.56
	11425	5713	7.36062E-001	4.80871E-002	0.00000E+000	7.37000E-001	-9.64214E-005	11	...........	-327.56
	11453	5727	7.64063E-001	4.66696E-002	0.00000E+000	7.65000E-001	-9.79881E-005	11	...........	-327.56
	11481	5741	7.92041E-001	4.59137E-002	0.00000E+000	7.93000E-001	-1.00255E-004	11	...........	-327.56
	11509	5755	8.20006E-001	4.49629E-002	0.00000E+000	8.21000E-001	-9.14548E-005	11	...........	-327.56
	11537	5769	8.48016E-001	4.40151E-002	0.00000E+000	8.49000E-001	-9.80881E-005	11	...........	-327.56
	11565	5783	8.76003E-001	4.31638E-002	0.00000E+000	8.77000E-001	-9.49881E-005	11	...........	-327.56
	11593	5797	9.03991E-001	4.21979E-002	0.00000E+000	9.05000E-001	-9.66214E-005	11	...........	-327.56
	11621	5811	9.31941E-001	4.13123E-002	0.00000E+000	9.33000E-001	-9.37214E-005	11	...........	-327.56
	11649	5825	9.59923E-001	4.10311E-002	0.00000E+000	9.61000E-001	-9.55548E-005	11	...........	-327.56
	11677	5839	9.87811E-001	4.37658E-002	0.00000E+000	9.89000E-001	-9.92548E-005	11	...........	-327.56
	11705	5853	1.01589E+000	4.67573E-002	0.00000E+000	1.01700E+000	-9.40214E-005	11	...........	-327.56
	11733	5867	1.04378E+000	5.21155E-002	0.00000E+000	1.04500E+000	-9.64548E-005	11	...........	-327.56
	11761	5881	1.07180E+000	5.72633E-002	0.00000E+000	1.07300E+000	-9.80881E-005	11	...........	-327.56
	11789	5895	1.09974E+000	6.37130E-002	0.00000E+000	1.10100E+000	-9.78548E-005	11	...........	-327.56
	11817	5909	1.12769E+000	6.47751E-002	0.00000E+000	1.12900E+000	-9.68214E-005	11	...........	-327.56
	11845	5923	1.15570E+000	5.97492E-002	0.00000E+000	1.15700E+000	-9.90881E-005	11	...........	-327.56
	11873	5937	1.18368E+000	5.01699E-002	0.00000E+000	1.18500E+000	-9.26881E-005	11	...........	-327.56
	11901	5951	1.21169E+000	4.89152E-002	0.00000E+000	1.21300E+000	-9.59881E-005	11	...........	-327.56
	11929	5965	1.23966E+000	6.40156E-002	0.00000E+000	1.24100E+000	-9.79548E-005	11	...........	-327.56
	11957	5979	1.26747E+000	9.46885E-002	0.00000E+000	1.26900E+000	-9.72214E-005	11	...........	-327.56
	11985	5993	1.29541E+000	1.37315E-001	0.00000E+000	1.29700E+000	-9.51214E-005	11	...........	-327.56
	12013	6007	1.32332E+000	1.87855E-001	0.00000E+000	1.32500E+000	-9.67214E-005	11	...........	-327.56
	12041	6021	1.35116E+000	2.43305E-001	0.00000E+000	1.35300E+000	-9.33214E-005	11	...........	-327.56
	12069	6035	1.37940E+000	3.03839E-001	0.00000E+000	1.38100E+000	-9.63881E-005	12	...........	-327.56
	12097	6049	1.40734E+000	3.65051E-001	0.00000E+000	1.40900E+000	-1.01155E-004	12	...........	-327.56
	12125	6063	1.43529E+000	4.25851E-001	0.00000E+000	1.43700E+000	-1.01355E-004	12	...........	-327.56
	12153	6077	1.46323E+000	4.86015E-001	0.00000E+000	1.46500E+000	-9.75881E-005	12	...........	-327.56
	12181	6091	1.49117E+000	5.48532E-001	0.00000E+000	1.49300E+000	-9.76214E-005	12	...........	-327.56
	12209	6105	1.51913E+000	6.18278E-001	0.00000E+000	1.52100E+000	-9.55214E-005	12	...........	-327.56
	12237	6119	1.54703E+000	6.84763E-001	0.00000E+000	1.54900E+000	-9.61548E-005	12	...........	-327.56
	12265	6133	1.57487E+000	7.57999E-001	0.00000E+000	1.57700E+000	-9.71548E-005	12	...........	-327.56
	12293	6147	1.60280E+000	8.52330E-001	0.00000E+000	1.60500E+000	-9.36881E-005	12	...........	-327.56
	12321	6161	1.63076E+000	9.39321E-001	0.00000E+000	1.63300E+000	-9.90548E-005	12	...........	-327.56
	12349	6175	1.65866E+000	1.03265E+000	0.00000E+000	1.66100E+000	-9.45881E-005	12	...........	-327.56
	12377	6189	1.68663E+000	1.11165E+000	0.00000E+000	1.68900E+000	-9.70548E-005	12	...........	-327.56
	12388	6194.5	1.69761E+000	1.17132E+000	0.00000E+000	1.70000E+000	-1.00588E-004	12	...........	-327.56