File: testing/data/240902_12_MCL13_cswWE_CV2_750C_CO2.DTA
EXPLAIN
TAG	CV
TITLE	LABEL	Cyclic Voltammetry	Test Identifier
DATE	LABEL	9/3/2024	Date
TIME	LABEL	6:51:01	Time
NOTES	NOTES	5	Notes...
	cswWE - carbon steel wire
cspWE - carbon steel plate 2x2 tapered

Carbon steel plate counter electrode
Carbon steel wire reference electrode
PSTAT	PSTAT	REF3000-48128	Potentiostat
VINIT	POTEN	0.00000E+000	T	Initial E (V)
VLIMIT1	POTEN	1.70000E+000	F	Scan Limit 1 (V)
VLIMIT2	POTEN	-3.00000E-001	F	Scan Limit 2 (V)
VFINAL	POTEN	1.70000E+000	F	Final E (V)
SCANRATE	QUANT	2.00000E+000	Scan Rate (mV/s)
STEPSIZE	QUANT	1.00000E+000	Step Size (mV)
CYCLES	IQUANT	2	Cycles (#)
IMODE	SELECTOR	0	I/E Range Mode
IRANGE	QUANT	3.00000E-001	Max Current (mA)
AREA	QUANT	1.00000E+000	Sample Area (cm^2)
EQDELAY	QUANT	0.00000E+000	Equil. Time (s)
IRCOMP	SELECTOR	0	IRComp
PFCOR	QUANT	5.00000E+001	PF Corr. (ohm)
SAMPLINGMODE	SELECTOR	1	Sampling Mode
EOC	QUANT	0.5099545	Open Circuit (V)
ELECTRODETYPE	SELECTOR	0	Electrode Type
STRIPPING	TOGGLE	F	Used for Stripping
SEQUENCER	TOGGLE	TRUE	Run as Sequence
PSTATMODEL	IQUANT	5	Pstat Model
PSTATSECTION	LABEL	REF3000-48128	Pstat Section
PSTATSERIALNO	LABEL	48128	Pstat Serial Number
CTRLMODE	IQUANT	1	Control Mode
ELECTROMETER	IQUANT	0	RE=0 or CS=1
IESTAB	IQUANT	2	I/E Stability
CASPEED	IQUANT	4	Control Amp Speed
CONVENTION	IQUANT	1	Current Convention
ICHRANGE	IQUANT	2	Ich Range
ICHRANGEMODE	TOGGLE	F	Ich Auto Range
ICHOFFSETENABLE	TOGGLE	F	Ich Offset Enable
ICHOFFSET	QUANT	0	Ich Offset (V)
ICHFILTER	IQUANT	3	Ich Filter
VCHRANGE	IQUANT	2	Vch Range
VCHRANGEMODE	TOGGLE	F	Vch Auto Range
VCHOFFSETENABLE	TOGGLE	F	Vch Offset Enable
VCHOFFSET	QUANT	0	Vch Offset (V)
VCHFILTER	IQUANT	3	Vch Filter
ACHRANGE	IQUANT	2	Ach Range
ACHOFFSETENABLE	TOGGLE	F	Ach Offset Enable
ACHOFFSET	QUANT	0	Ach Offset (V)
ACHFILTER	IQUANT	1	Ach Filter
IERANGELOWERLIMIT	IQUANT	2	I/E Range Lower Limit
IERANGEMODE	TOGGLE	T	I/E AutoRange
IERANGE	IQUANT	9	I/E Range
POSFEEDENABLE	TOGGLE	F	Positive Feedback IR Comp
POSFEEDRESISTANCE	QUANT	0	Positive Feedback Resistance (ohm)
ACHSELECT	IQUANT	4	Ach Select
SENSECABLEID	IQUANT	14	Sense Cable ID
PWRCABLEID	IQUANT	7	Power Cable ID
DCCALDATE	LABEL	8/16/2024	DC Calibration Date
ACCALDATE	LABEL	8/16/2024	AC Calibration Date
THERMOSELECT	IQUANT	1	Thermo Select
FRAMEWORKVERSION	LABEL	7.10.3	Framework Version
INSTRUMENTVERSION	LABEL	4.91	Instrument Version
COMMVERSION	LABEL	5.10	Communications Version
CPUPLDVERSION	LABEL	6.00	CPU PLD Version
CTRLPLDVERSION	LABEL	3.21	CTRL PLD Version
PSTATPLDVERSION	LABEL	0.00	PSTAT PLD Version
COMPLIANCEVOLTAGE	IQUANT	0	Compliance Voltage
CURVE1	TABLE
	Pt	T	Vf	Im	Vu	Sig	Ach	IERange	Over	Temp
	#	s	V vs. Ref.	A	V	V	V	#	bits	deg C
	0	0.5	5.09354E-001	4.72247E-004	0.00000E+000	5.09950E-001	-1.08721E-004	9	...........	-327.56
	33	17	5.42328E-001	5.56866E-003	0.00000E+000	5.42950E-001	-1.09688E-004	10	...........	-327.56
	66	33.5	5.75274E-001	7.52920E-003	0.00000E+000	5.75950E-001	-1.23288E-004	10	...........	-327.56
	99	50	6.08195E-001	8.44628E-003	0.00000E+000	6.08950E-001	-1.20521E-004	10	...........	-327.56
	132	66.5	6.41175E-001	8.72641E-003	0.00000E+000	6.41950E-001	-1.16088E-004	10	...........	-327.56
	165	83	6.74200E-001	8.74282E-003	0.00000E+000	6.74950E-001	-1.17188E-004	10	...........	-327.56
	198	99.5	7.07134E-001	8.61998E-003	0.00000E+000	7.07950E-001	-1.17755E-004	10	...........	-327.56
	231	116	7.40048E-001	8.26818E-003	0.00000E+000	7.40950E-001	-1.16321E-004	10	...........	-327.56
	264	132.5	7.73102E-001	7.93708E-003	0.00000E+000	7.73950E-001	-1.17555E-004	10	...........	-327.56
	297	149	8.06054E-001	7.60218E-003	0.00000E+000	8.06950E-001	-1.15388E-004	10	...........	-327.56
	330	165.5	8.38963E-001	7.36844E-003	0.00000E+000	8.39950E-001	-1.14155E-004	10	...........	-327.56
	363	182	8.71965E-001	7.88217E-003	0.00000E+000	8.72950E-001	-1.15688E-004	10	...........	-327.56
	396	198.5	9.04991E-001	7.51212E-003	0.00000E+000	9.05950E-001	-1.18521E-004	10	...........	-327.56
	429	215	9.37834E-001	8.36050E-003	0.00000E+000	9.38950E-001	-1.09955E-004	10	...........	-327.56
	462	231.5	9.70801E-001	1.09693E-002	0.00000E+000	9.71950E-001	-1.18221E-004	10	...........	-327.56
	495	248	1.00376E+000	1.60510E-002	0.00000E+000	1.00495E+000	-1.15155E-004	10	...........	-327.56
	528	264.5	1.03661E+000	2.37398E-002	0.00000E+000	1.03795E+000	-1.12621E-004	10	...........	-327.56
	561	281	1.06981E+000	3.37358E-002	0.00000E+000	1.07095E+000	-1.16321E-004	11	...........	-327.56
	594	297.5	1.10279E+000	4.61851E-002	0.00000E+000	1.10395E+000	-1.15021E-004	11	...........	-327.56
	627	314	1.13572E+000	6.15645E-002	0.00000E+000	1.13695E+000	-1.13588E-004	11	...........	-327.56
	660	330.5	1.16862E+000	7.96346E-002	0.00000E+000	1.16995E+000	-1.15788E-004	11	...........	-327.56
	693	347	1.20155E+000	1.03585E-001	0.00000E+000	1.20295E+000	-1.16255E-004	11	...........	-327.56
	726	363.5	1.23456E+000	1.36255E-001	0.00000E+000	1.23595E+000	-1.18688E-004	11	...........	-327.56
	759	380	1.26737E+000	1.80300E-001	0.00000E+000	1.26895E+000	-1.13655E-004	11	...........	-327.56
	792	396.5	1.30029E+000	2.35575E-001	0.00000E+000	1.30195E+000	-1.11988E-004	11	...........	-327.56
	825	413	1.33347E+000	3.00534E-001	0.00000E+000	1.33495E+000	-1.14688E-004	12	...........	-327.56
	858	429.5	1.36643E+000	3.69927E-001	0.00000E+000	1.36795E+000	-1.15588E-004	12	...........	-327.56
	891	446	1.39929E+000	4.46775E-001	0.00000E+000	1.40095E+000	-1.18288E-004	12	...........	-327.56
	924	462.5	1.43223E+000	5.30506E-001	0.00000E+000	1.43395E+000	-1.13821E-004	12	...........	-327.56
	957	479	1.46517E+000	6.18875E-001	0.00000E+000	1.46695E+000	-1.16755E-004	12	...........	-327.56
	990	495.5	1.49800E+000	7.07853E-001	0.00000E+000	1.49995E+000	-1.18521E-004	12	...........	-327.56
	1023	512	1.53103E+000	7.92370E-001	0.00000E+000	1.53295E+000	-1.15721E-004	12	...........	-327.56
	1056	528.5	1.56390E+000	8.73807E-001	0.00000E+000	1.56595E+000	-1.13488E-004	12	...........	-327.56
	1089	545	1.59684E+000	9.51681E-001	0.00000E+000	1.59895E+000	-1.14655E-004	12	...........	-327.56
	1122	561.5	1.62971E+000	1.02784E+000	0.00000E+000	1.63195E+000	-1.13355E-004	12	...........	-327.56
	1155	578	1.66265E+000	1.09366E+000	0.00000E+000	1.66495E+000	-1.12421E-004	12	...........	-327.56
	1188	594.5	1.69563E+000	1.16272E+000	0.00000E+000	1.69795E+000	-1.16755E-004	12	...........	-327.56
	1221	611	1.66668E+000	1.10242E+000	0.00000E+000	1.66895E+000	-1.14588E-004	12	...........	-327.56
	1254	627.5	1.63374E+000	1.02817E+000	0.00000E+000	1.63595E+000	-1.20121E-004	12	...........	-327.56
	1287	644	1.60073E+000	9.63945E-001	0.00000E+000	1.60295E+000	-1.15988E-004	12	...........	-327.56
	1320	660.5	1.56791E+000	8.93852E-001	0.00000E+000	1.56995E+000	-1.16988E-004	12	...........	-327.56
	1353	677	1.53494E+000	8.28001E-001	0.00000E+000	1.53695E+000	-1.16355E-004	12	...........	-327.56
	1386	693.5	1.50199E+000	7.60542E-001	0.00000E+000	1.50395E+000	-1.14555E-004	12	...........	-327.56
	1419	710	1.46914E+000	6.92704E-001	0.00000E+000	1.47095E+000	-1.16421E-004	12	...........	-327.56
	1452	726.5	1.43618E+000	6.23237E-001	0.00000E+000	1.43795E+000	-1.17855E-004	12	...........	-327.56
	1485	743	1.40319E+000	5.53878E-001	0.00000E+000	1.40495E+000	-1.19321E-004	12	...........	-327.56
	1518	759.5	1.37024E+000	4.87935E-001	0.00000E+000	1.37195E+000	-1.15488E-004	12	...........	-327.56
	1551	776	1.33742E+000	4.19279E-001	0.00000E+000	1.33895E+000	-1.14321E-004	12	...........	-327.56
	1584	792.5	1.30445E+000	3.56292E-001	0.00000E+000	1.30595E+000	-1.16821E-004	12	...........	-327.56
	1617	809	1.27148E+000	2.96923E-001	0.00000E+000	1.27295E+000	-1.14588E-004	12	...........	-327.56
	1650	825.5	1.23864E+000	2.43275E-001	0.00000E+000	1.23995E+000	-1.16288E-004	12	...........	-327.56
	1683	842	1.20544E+000	1.93647E-001	0.00000E+000	1.20695E+000	-1.12821E-004	11	...........	-327.56
	1716	858.5	1.17252E+000	1.48425E-001	0.00000E+000	1.17395E+000	-1.13288E-004	11	...........	-327.56
	1749	875	1.13953E+000	1.09729E-001	0.00000E+000	1.14095E+000	-1.13288E-004	11	...........	-327.56
	1782	891.5	1.10673E+000	7.61382E-002	0.00000E+000	1.10795E+000	-1.15155E-004	11	...........	-327.56
	1815	908	1.07378E+000	5.07482E-002	0.00000E+000	1.07495E+000	-1.17321E-004	11	...........	-327.56
	1848	924.5	1.04079E+000	3.21686E-002	0.00000E+000	1.04195E+000	-1.14288E-004	11	...........	-327.56
	1881	941	1.00773E+000	1.86906E-002	0.00000E+000	1.00895E+000	-1.15388E-004	10	...........	-327.56
	1914	957.5	9.74832E-001	1.00909E-002	0.00000E+000	9.75950E-001	-1.14988E-004	10	...........	-327.56
	1947	974	9.41866E-001	6.08161E-003	0.00000E+000	9.42950E-001	-1.12721E-004	10	...........	-327.56
	1980	990.5	9.08951E-001	4.50565E-003	0.00000E+000	9.09950E-001	-1.15388E-004	10	...........	-327.56
	2013	1007	8.76040E-001	4.09465E-003	0.00000E+000	8.76950E-001	-1.17321E-004	10	...........	-327.56
	2046	1023.5	8.43044E-001	3.86999E-003	0.00000E+000	8.43950E-001	-1.14121E-004	10	...........	-327.56
	2079	1040	8.10047E-001	3.70543E-003	0.00000E+000	8.10950E-001	-1.18021E-004	10	...........	-327.56
	2112	1056.5	7.77120E-001	3.57768E-003	0.00000E+000	7.77950E-001	-1.16488E-004	10	...........	-327.56
	2145	1073	7.44156E-001	3.40344E-003	0.00000E+000	7.44950E-001	-1.16488E-004	10	...........	-327.56
	2178	1089.5	7.11169E-001	3.25683E-003	0.00000E+000	7.11950E-001	-1.16121E-004	10	...........	-327.56
	2211	1106	6.78255E-001	2.89011E-003	0.00000E+000	6.78950E-001	-1.12521E-004	10	...........	-327.56
	2244	1122.5	6.45036E-001	2.29040E-003	0.00000E+000	6.45950E-001	-1.14188E-004	9	...........	-327.56
	2277	1139	6.12114E-001	1.71475E-003	0.00000E+000	6.12950E-001	-1.16655E-004	9	...........	-327.56
	2310	1155.5	5.79158E-001	9.64044E-004	0.00000E+000	5.79950E-001	-1.15621E-004	9	...........	-327.56
	2343	1172	5.46564E-001	-1.25116E-004	0.00000E+000	5.46950E-001	-1.15288E-004	8	...........	-327.56
	2376	1188.5	5.13559E-001	-1.43205E-003	0.00000E+000	5.13950E-001	-1.15688E-004	9	...........	-327.56
	2409	1205	4.80450E-001	-3.13400E-003	0.00000E+000	4.80950E-001	-1.14688E-004	10	...........	-327.56
	2442	1221.5	4.47541E-001	-4.87784E-003	0.00000E+000	4.47950E-001	-1.15221E-004	10	...........	-327.56
	2475	1238	4.14599E-001	-6.81992E-003	0.00000E+000	4.14950E-001	-1.17221E-004	10	...........	-327.56
	2508	1254.5	3.81581E-001	-8.48366E-003	0.00000E+000	3.81950E-001	-1.14055E-004	10	...........	-327.56
	2541	1271	3.48690E-001	-1.01235E-002	0.00000E+000	3.48950E-001	-1.16755E-004	10	...........	-327.56
	2574	1287.5	3.15716E-001	-1.16535E-002	0.00000E+000	3.15950E-001	-1.18821E-004	10	...........	-327.56
	2607	1304	2.82782E-001	-1.31493E-002	0.00000E+000	2.82950E-001	-1.17821E-004	10	...........	-327.56
	2640	1320.5	2.49787E-001	-1.45247E-002	0.00000E+000	2.49950E-001	-1.14888E-004	10	...........	-327.56
	2673	1337	2.16865E-001	-1.59222E-002	0.00000E+000	2.16950E-001	-1.12555E-004	10	...........	-327.56
	2706	1353.5	1.83930E-001	-1.72009E-002	0.00000E+000	1.83950E-001	-1.16988E-004	10	...........	-327.56
	2739	1370	1.50941E-001	-1.85341E-002	0.00000E+000	1.50950E-001	-1.12155E-004	10	...........	-327.56
	2772	1386.5	1.17944E-001	-2.05492E-002	0.00000E+000	1.17950E-001	-1.09188E-004	10	...........	-327.56
	2805	1403	8.51150E-002	-2.32279E-002	0.00000E+000	8.49501E-002	-1.10788E-004	10	...........	-327.56
	2838	1419.5	5.21534E-002	-2.50750E-002	0.00000E+000	5.19500E-002	-1.04988E-004	10	...........	-327.56
	2871	1436	1.91514E-002	-2.49838E-002	0.00000E+000	1.89500E-002	-1.10388E-004	10	...........	-327.56
	2904	1452.5	-1.36505E-002	-2.14778E-002	0.00000E+000	-1.40499E-002	-1.09055E-004	10	...........	-327.56
	2937	1469	-4.66881E-002	-1.63310E-002	0.00000E+000	-4.70499E-002	-1.12755E-004	10	...........	-327.56
	2970	1485.5	-7.97639E-002	-1.23207E-002	0.00000E+000	-8.00499E-002	-1.17988E-004	10	...........	-327.56
	3003	1502	-1.12771E-001	-1.03196E-002	0.00000E+000	-1.13050E-001	-1.18488E-004	10	...........	-327.56
	3036	1518.5	-1.45674E-001	-9.44535E-003	0.00000E+000	-1.46050E-001	-1.17321E-004	10	...........	-327.56
	3069	1535	-1.78681E-001	-9.09546E-003	0.00000E+000	-1.79050E-001	-1.15821E-004	10	...........	-327.56
	3102	1551.5	-2.11677E-001	-9.54830E-003	0.00000E+000	-2.12050E-001	-1.19055E-004	10	...........	-327.56
	3135	1568	-2.44578E-001	-1.05002E-002	0.00000E+000	-2.45050E-001	-1.20488E-004	10	...........	-327.56
	3168	1584.5	-2.77554E-001	-1.18936E-002	0.00000E+000	-2.78050E-001	-1.17755E-004	10	...........	-327.56
	3190	1595.5	-2.99519E-001	-1.32507E-002	0.00000E+000	-3.00050E-001	-1.16155E-004	10	...........	-327.56
CURVE2	TABLE
	Pt	T	Vf	Im	Vu	Sig	Ach	IERange	Over	Temp
	#	s	V vs. Ref.	A	V	V	V	#	bits	deg C
	3191	1596	-2.98472E-001	-1.28232E-002	0.00000E+000	-2.99000E-001	-1.16455E-004	10	...........	-327.56
	3232	1616.5	-2.57592E-001	-7.70657E-003	0.00000E+000	-2.58000E-001	-1.22788E-004	10	...........	-327.56
	3273	1637	-2.16721E-001	-4.69413E-003	0.00000E+000	-2.17000E-001	-1.23621E-004	10	...........	-327.56
	3314	1657.5	-1.75687E-001	-2.39503E-003	0.00000E+000	-1.76000E-001	-1.17521E-004	10	...........	-327.56
	3355	1678	-1.34746E-001	-6.69426E-004	0.00000E+000	-1.35000E-001	-1.20488E-004	9	...........	-327.56
	3396	1698.5	-9.38833E-002	5.23702E-004	0.00000E+000	-9.39999E-002	-1.20221E-004	9	...........	-327.56
	3437	1719	-5.29994E-002	1.23229E-003	0.00000E+000	-5.29999E-002	-1.16621E-004	9	...........	-327.56
	3478	1739.5	-1.21721E-002	1.79346E-003	0.00000E+000	-1.19999E-002	-1.18188E-004	9	...........	-327.56
	3519	1760	2.85711E-002	2.57099E-003	0.00000E+000	2.90000E-002	-1.12521E-004	9	...........	-327.56
	3560	1780.5	6.97888E-002	3.26703E-003	0.00000E+000	7.00001E-002	-1.21155E-004	10	...........	-327.56
	3601	1801	1.10758E-001	3.77961E-003	0.00000E+000	1.11000E-001	-1.17788E-004	10	...........	-327.56
	3642	1821.5	1.51687E-001	4.61331E-003	0.00000E+000	1.52000E-001	-1.22521E-004	10	...........	-327.56
	3683	1842	1.92589E-001	5.98295E-003	0.00000E+000	1.93000E-001	-1.17188E-004	10	...........	-327.56
	3724	1862.5	2.33621E-001	7.96032E-003	0.00000E+000	2.34000E-001	-1.22488E-004	10	...........	-327.56
	3765	1883	2.74501E-001	1.03811E-002	0.00000E+000	2.75000E-001	-1.18321E-004	10	...........	-327.56
	3806	1903.5	3.15470E-001	1.32809E-002	0.00000E+000	3.16000E-001	-1.15955E-004	10	...........	-327.56
	3847	1924	3.56332E-001	1.69543E-002	0.00000E+000	3.57000E-001	-1.18755E-004	10	...........	-327.56
	3888	1944.5	3.97201E-001	2.18090E-002	0.00000E+000	3.98000E-001	-1.14055E-004	10	...........	-327.56
	3929	1965	4.38500E-001	2.71231E-002	0.00000E+000	4.39000E-001	-1.21321E-004	11	...........	-327.56
	3970	1985.5	4.79422E-001	3.04353E-002	0.00000E+000	4.80000E-001	-1.21421E-004	11	...........	-327.56
	4011	2006	5.20418E-001	3.09020E-002	0.00000E+000	5.21000E-001	-1.18288E-004	11	...........	-327.56
	4052	2026.5	5.61398E-001	2.89116E-002	0.00000E+000	5.62000E-001	-1.19055E-004	11	...........	-327.56
	4093	2047	6.02271E-001	2.62764E-002	0.00000E+000	6.03000E-001	-1.19388E-004	11	...........	-327.56
	4134	2067.5	6.43090E-001	2.32908E-002	0.00000E+000	6.44000E-001	-1.18255E-004	10	...........	-327.56
	4175	2088	6.84002E-001	2.07141E-002	0.00000E+000	6.85000E-001	-1.18221E-004	10	...........	-327.56
	4216	2108.5	7.25050E-001	1.82737E-002	0.00000E+000	7.26000E-001	-1.17321E-004	10	...........	-327.56
	4257	2129	7.65969E-001	1.63404E-002	0.00000E+000	7.67000E-001	-1.19355E-004	10	...........	-327.56
	4298	2149.5	8.06958E-001	1.46375E-002	0.00000E+000	8.08000E-001	-1.18455E-004	10	...........	-327.56
	4339	2170	8.47974E-001	1.32423E-002	0.00000E+000	8.49000E-001	-1.19755E-004	10	...........	-327.56
	4380	2190.5	8.88902E-001	1.21126E-002	0.00000E+000	8.90000E-001	-1.16221E-004	10	...........	-327.56
	4421	2211	9.29922E-001	1.12291E-002	0.00000E+000	9.31000E-001	-1.19088E-004	10	...........	-327.56
	4462	2231.5	9.70829E-001	1.18171E-002	0.00000E+000	9.72000E-001	-1.19621E-004	10	...........	-327.56
	4503	2252	1.01169E+000	1.68143E-002	0.00000E+000	1.01300E+000	-1.17055E-004	10	...........	-327.56
	4544	2272.5	1.05294E+000	2.79575E-002	0.00000E+000	1.05400E+000	-1.18588E-004	11	...........	-327.56
	4585	2293	1.09382E+000	4.48158E-002	0.00000E+000	1.09500E+000	-1.18955E-004	11	...........	-327.56
	4626	2313.5	1.13477E+000	6.88934E-002	0.00000E+000	1.13600E+000	-1.20288E-004	11	...........	-327.56
	4667	2334	1.17564E+000	9.87269E-002	0.00000E+000	1.17700E+000	-1.16488E-004	11	...........	-327.56
	4708	2354.5	1.21650E+000	1.40118E-001	0.00000E+000	1.21800E+000	-1.15688E-004	11	...........	-327.56
	4749	2375	1.25749E+000	1.98718E-001	0.00000E+000	1.25900E+000	-1.16988E-004	11	...........	-327.56
	4790	2395.5	1.29856E+000	2.78444E-001	0.00000E+000	1.30000E+000	-1.19955E-004	12	...........	-327.56
	4831	2416	1.33949E+000	3.73969E-001	0.00000E+000	1.34100E+000	-1.18621E-004	12	...........	-327.56
	4872	2436.5	1.38034E+000	4.77590E-001	0.00000E+000	1.38200E+000	-1.21288E-004	12	...........	-327.56
	4913	2457	1.42121E+000	5.75513E-001	0.00000E+000	1.42300E+000	-1.18321E-004	12	...........	-327.56
	4954	2477.5	1.46219E+000	6.71425E-001	0.00000E+000	1.46400E+000	-1.16721E-004	12	...........	-327.56
	4995	2498	1.50304E+000	7.63010E-001	0.00000E+000	1.50500E+000	-1.18688E-004	12	...........	-327.56
	5036	2518.5	1.54397E+000	8.56307E-001	0.00000E+000	1.54600E+000	-1.18888E-004	12	...........	-327.56
[...]
	7443	3722	-4.69825E-002	9.97048E-004	0.00000E+000	-4.69999E-002	-1.21955E-004	9	...........	-327.56
	7464	3732.5	-2.60740E-002	1.20856E-003	0.00000E+000	-2.60000E-002	-1.14921E-004	9	...........	-327.56
	7485	3743	-5.07818E-003	1.36166E-003	0.00000E+000	-4.99994E-003	-1.16821E-004	9	...........	-327.56
	7506	3753.5	1.56193E-002	1.53209E-003	0.00000E+000	1.60001E-002	-1.16621E-004	9	...........	-327.56
	7527	3764	3.66910E-002	1.73954E-003	0.00000E+000	3.70001E-002	-1.18888E-004	9	...........	-327.56
	7548	3774.5	5.76337E-002	1.98218E-003	0.00000E+000	5.80001E-002	-1.18955E-004	9	...........	-327.56
	7569	3785	7.85720E-002	2.17402E-003	0.00000E+000	7.90001E-002	-1.17121E-004	9	...........	-327.56
	7590	3795.5	9.94916E-002	2.43014E-003	0.00000E+000	1.00000E-001	-1.13088E-004	9	...........	-327.56
	7611	3806	1.20704E-001	2.73928E-003	0.00000E+000	1.21000E-001	-1.15321E-004	10	...........	-327.56
	7632	3816.5	1.41656E-001	3.10311E-003	0.00000E+000	1.42000E-001	-1.18388E-004	10	...........	-327.56
	7653	3827	1.62711E-001	3.47520E-003	0.00000E+000	1.63000E-001	-1.20321E-004	10	...........	-327.56
	7674	3837.5	1.83711E-001	3.94661E-003	0.00000E+000	1.84000E-001	-1.19355E-004	10	...........	-327.56
	7695	3848	2.04700E-001	4.46417E-003	0.00000E+000	2.05000E-001	-1.18221E-004	10	...........	-327.56
	7716	3858.5	2.25611E-001	5.12574E-003	0.00000E+000	2.26000E-001	-1.18221E-004	10	...........	-327.56
	7737	3869	2.46567E-001	5.94490E-003	0.00000E+000	2.47000E-001	-1.21188E-004	10	...........	-327.56
	7758	3879.5	2.67615E-001	6.96241E-003	0.00000E+000	2.68000E-001	-1.17721E-004	10	...........	-327.56
	7779	3890	2.88579E-001	8.16464E-003	0.00000E+000	2.89000E-001	-1.16655E-004	10	...........	-327.56
	7800	3900.5	3.09474E-001	9.67439E-003	0.00000E+000	3.10000E-001	-1.16821E-004	10	...........	-327.56
	7821	3911	3.30417E-001	1.14770E-002	0.00000E+000	3.31000E-001	-1.18721E-004	10	...........	-327.56
	7842	3921.5	3.51367E-001	1.36672E-002	0.00000E+000	3.52000E-001	-1.19788E-004	10	...........	-327.56
	7863	3932	3.72279E-001	1.60318E-002	0.00000E+000	3.73000E-001	-1.19888E-004	10	...........	-327.56
	7884	3942.5	3.93343E-001	1.84398E-002	0.00000E+000	3.94000E-001	-1.12888E-004	10	...........	-327.56
	7905	3953	4.14314E-001	2.03498E-002	0.00000E+000	4.15000E-001	-1.15955E-004	10	...........	-327.56
	7926	3963.5	4.35244E-001	2.19856E-002	0.00000E+000	4.36000E-001	-1.18888E-004	10	...........	-327.56
	7947	3974	4.56209E-001	2.35450E-002	0.00000E+000	4.57000E-001	-1.17388E-004	10	...........	-327.56
	7968	3984.5	4.77134E-001	2.48594E-002	0.00000E+000	4.78000E-001	-1.18788E-004	10	...........	-327.56
	7989	3995	4.98196E-001	2.59260E-002	0.00000E+000	4.99000E-001	-1.12455E-004	10	...........	-327.56
	8010	4005.5	5.19116E-001	2.63713E-002	0.00000E+000	5.20000E-001	-1.11488E-004	10	...........	-327.56
	8031	4016	5.40092E-001	2.61471E-002	0.00000E+000	5.41000E-001	-1.17988E-004	10	...........	-327.56
	8052	4026.5	5.61070E-001	2.53146E-002	0.00000E+000	5.62000E-001	-1.17055E-004	10	...........	-327.56
	8073	4037	5.82037E-001	2.42312E-002	0.00000E+000	5.83000E-001	-1.15188E-004	10	...........	-327.56
	8094	4047.5	6.03104E-001	2.30519E-002	0.00000E+000	6.04000E-001	-1.17188E-004	10	...........	-327.56
	8115	4058	6.24105E-001	2.18342E-002	0.00000E+000	6.25000E-001	-1.14621E-004	10	...........	-327.56
	8136	4068.5	6.45092E-001	2.05611E-002	0.00000E+000	6.46000E-001	-1.14655E-004	10	...........	-327.56
	8157	4079	6.66067E-001	1.93619E-002	0.00000E+000	6.67000E-001	-1.13488E-004	10	...........	-327.56
	8178	4089.5	6.87049E-001	1.81161E-002	0.00000E+000	6.88000E-001	-1.14955E-004	10	...........	-327.56
	8199	4100	7.08022E-001	1.71611E-002	0.00000E+000	7.09000E-001	-1.15488E-004	10	...........	-327.56
	8220	4110.5	7.29024E-001	1.60620E-002	0.00000E+000	7.30000E-001	-1.18755E-004	10	...........	-327.56
	8241	4121	7.50046E-001	1.51504E-002	0.00000E+000	7.51000E-001	-1.16188E-004	10	...........	-327.56
	8262	4131.5	7.71071E-001	1.43652E-002	0.00000E+000	7.72000E-001	-1.20155E-004	10	...........	-327.56
	8283	4142	7.91988E-001	1.36666E-002	0.00000E+000	7.93000E-001	-1.15955E-004	10	...........	-327.56
	8304	4152.5	8.12991E-001	1.29589E-002	0.00000E+000	8.14000E-001	-1.18455E-004	10	...........	-327.56
	8325	4163	8.33924E-001	1.23617E-002	0.00000E+000	8.35000E-001	-1.18188E-004	10	...........	-327.56
	8346	4173.5	8.55019E-001	1.17562E-002	0.00000E+000	8.56000E-001	-1.15621E-004	10	...........	-327.56
	8367	4184	8.75986E-001	1.12205E-002	0.00000E+000	8.77000E-001	-1.14655E-004	10	...........	-327.56
	8388	4194.5	8.96965E-001	1.07032E-002	0.00000E+000	8.98000E-001	-1.15555E-004	10	...........	-327.56
	8409	4205	9.17934E-001	1.03399E-002	0.00000E+000	9.19000E-001	-1.19888E-004	10	...........	-327.56
	8430	4215.5	9.38845E-001	1.00832E-002	0.00000E+000	9.40000E-001	-1.16555E-004	10	...........	-327.56
	8451	4226	9.59912E-001	1.03691E-002	0.00000E+000	9.61000E-001	-1.15921E-004	10	...........	-327.56
	8472	4236.5	9.80897E-001	1.16163E-002	0.00000E+000	9.82000E-001	-1.19855E-004	10	...........	-327.56
	8493	4247	1.00183E+000	1.39913E-002	0.00000E+000	1.00300E+000	-1.19288E-004	10	...........	-327.56
	8514	4257.5	1.02272E+000	1.83131E-002	0.00000E+000	1.02400E+000	-1.17321E-004	10	...........	-327.56
	8535	4268	1.04360E+000	2.47043E-002	0.00000E+000	1.04500E+000	-1.13755E-004	10	...........	-327.56
	8556	4278.5	1.06484E+000	3.30921E-002	0.00000E+000	1.06600E+000	-1.19288E-004	11	...........	-327.56
	8577	4289	1.08587E+000	4.29967E-002	0.00000E+000	1.08700E+000	-1.20421E-004	11	...........	-327.56
	8598	4299.5	1.10684E+000	5.45841E-002	0.00000E+000	1.10800E+000	-1.17721E-004	11	...........	-327.56
	8619	4310	1.12778E+000	6.81965E-002	0.00000E+000	1.12900E+000	-1.19188E-004	11	...........	-327.56
	8640	4320.5	1.14873E+000	8.30703E-002	0.00000E+000	1.15000E+000	-1.19888E-004	11	...........	-327.56
	8661	4331	1.16960E+000	1.00617E-001	0.00000E+000	1.17100E+000	-1.18688E-004	11	...........	-327.56
	8682	4341.5	1.19058E+000	1.21200E-001	0.00000E+000	1.19200E+000	-1.19421E-004	11	...........	-327.56
	8703	4352	1.21160E+000	1.45639E-001	0.00000E+000	1.21300E+000	-1.19821E-004	11	...........	-327.56
	8724	4362.5	1.23254E+000	1.74910E-001	0.00000E+000	1.23400E+000	-1.17321E-004	11	...........	-327.56
	8745	4373	1.25343E+000	2.08630E-001	0.00000E+000	1.25500E+000	-1.15188E-004	11	...........	-327.56
	8766	4383.5	1.27431E+000	2.48607E-001	0.00000E+000	1.27600E+000	-1.10921E-004	11	...........	-327.56
	8787	4394	1.29553E+000	2.93316E-001	0.00000E+000	1.29700E+000	-1.17355E-004	12	...........	-327.56
	8808	4404.5	1.31657E+000	3.45108E-001	0.00000E+000	1.31800E+000	-1.18621E-004	12	...........	-327.56
	8829	4415	1.33748E+000	3.95565E-001	0.00000E+000	1.33900E+000	-1.14621E-004	12	...........	-327.56
	8850	4425.5	1.35840E+000	4.47392E-001	0.00000E+000	1.36000E+000	-1.18855E-004	12	...........	-327.56
	8871	4436	1.37936E+000	4.93280E-001	0.00000E+000	1.38100E+000	-1.17588E-004	12	...........	-327.56
	8892	4446.5	1.40028E+000	5.39816E-001	0.00000E+000	1.40200E+000	-1.17688E-004	12	...........	-327.56
	8913	4457	1.42121E+000	5.88589E-001	0.00000E+000	1.42300E+000	-1.20021E-004	12	...........	-327.56
	8934	4467.5	1.44226E+000	6.31848E-001	0.00000E+000	1.44400E+000	-1.15855E-004	12	...........	-327.56
	8955	4478	1.46319E+000	6.75604E-001	0.00000E+000	1.46500E+000	-1.21388E-004	12	...........	-327.56
	8976	4488.5	1.48410E+000	7.24372E-001	0.00000E+000	1.48600E+000	-1.22455E-004	12	...........	-327.56
	8997	4499	1.50507E+000	7.66722E-001	0.00000E+000	1.50700E+000	-1.19821E-004	12	...........	-327.56
	9018	4509.5	1.52597E+000	8.08712E-001	0.00000E+000	1.52800E+000	-1.18288E-004	12	...........	-327.56
	9039	4520	1.54697E+000	8.50638E-001	0.00000E+000	1.54900E+000	-1.16855E-004	12	...........	-327.56
	9060	4530.5	1.56793E+000	9.00457E-001	0.00000E+000	1.57000E+000	-1.20855E-004	12	...........	-327.56
	9081	4541	1.58889E+000	9.36067E-001	0.00000E+000	1.59100E+000	-1.16855E-004	12	...........	-327.56
	9102	4551.5	1.60984E+000	9.80113E-001	0.00000E+000	1.61200E+000	-1.16188E-004	12	...........	-327.56
	9123	4562	1.63077E+000	1.02172E+000	0.00000E+000	1.63300E+000	-1.16321E-004	12	...........	-327.56
	9144	4572.5	1.65168E+000	1.06191E+000	0.00000E+000	1.65400E+000	-1.17588E-004	12	...........	-327.56
	9165	4583	1.67275E+000	1.10600E+000	0.00000E+000	1.67500E+000	-1.13688E-004	12	...........	-327.56
	9186	4593.5	1.69369E+000	1.14505E+000	0.00000E+000	1.69600E+000	-1.18721E-004	12	...........	-327.56
	9190	4595.5	1.69770E+000	1.15297E+000	0.00000E+000	1.70000E+000	-1.17255E-004	12	...........	-327.56