File: testing/data/240902_24_MCL13_cspWE_CV2_750C_CO2.DTA
EXPLAIN
TAG	CV
TITLE	LABEL	Cyclic Voltammetry	Test Identifier
DATE	LABEL	9/4/2024	Date
TIME	LABEL	4:49:14	Time
NOTES	NOTES	5	Notes...
	cswWE - carbon steel wire
cspWE - carbon steel plate 2x2 tapered

Carbon steel plate counter electrode
Carbon steel wire reference electrode
PSTAT	PSTAT	REF3000-48128	Potentiostat
VINIT	POTEN	0.00000E+000	T	Initial E (V)
VLIMIT1	POTEN	1.70000E+000	F	Scan Limit 1 (V)
VLIMIT2	POTEN	-1.00000E+000	F	Scan Limit 2 (V)
VFINAL	POTEN	1.70000E+000	F	Final E (V)
SCANRATE	QUANT	9.99998E-001	Scan Rate (mV/s)
STEPSIZE	QUANT	1.00000E+000	Step Size (mV)
CYCLES	IQUANT	6	Cycles (#)
IMODE	SELECTOR	0	I/E Range Mode
IRANGE	QUANT	3.00000E-001	Max Current (mA)
AREA	QUANT	1.00000E+000	Sample Area (cm^2)
EQDELAY	QUANT	0.00000E+000	Equil. Time (s)
IRCOMP	SELECTOR	0	IRComp
PFCOR	QUANT	5.00000E+001	PF Corr. (ohm)
SAMPLINGMODE	SELECTOR	1	Sampling Mode
EOC	QUANT	0.4850335	Open Circuit (V)
ELECTRODETYPE	SELECTOR	0	Electrode Type
STRIPPING	TOGGLE	F	Used for Stripping
SEQUENCER	TOGGLE	TRUE	Run as Sequence
PSTATMODEL	IQUANT	5	Pstat Model
PSTATSECTION	LABEL	REF3000-48128	Pstat Section
PSTATSERIALNO	LABEL	48128	Pstat Serial Number
CTRLMODE	IQUANT	1	Control Mode
ELECTROMETER	IQUANT	0	RE=0 or CS=1
IESTAB	IQUANT	2	I/E Stability
CASPEED	IQUANT	4	Control Amp Speed
CONVENTION	IQUANT	1	Current Convention
ICHRANGE	IQUANT	2	Ich Range
ICHRANGEMODE	TOGGLE	F	Ich Auto Range
ICHOFFSETENABLE	TOGGLE	F	Ich Offset Enable
ICHOFFSET	QUANT	0	Ich Offset (V)
ICHFILTER	IQUANT	3	Ich Filter
VCHRANGE	IQUANT	2	Vch Range
VCHRANGEMODE	TOGGLE	F	Vch Auto Range
VCHOFFSETENABLE	TOGGLE	F	Vch Offset Enable
VCHOFFSET	QUANT	0	Vch Offset (V)
VCHFILTER	IQUANT	3	Vch Filter
ACHRANGE	IQUANT	2	Ach Range
ACHOFFSETENABLE	TOGGLE	F	Ach Offset Enable
ACHOFFSET	QUANT	0	Ach Offset (V)
ACHFILTER	IQUANT	1	Ach Filter
IERANGELOWERLIMIT	IQUANT	2	I/E Range Lower Limit
IERANGEMODE	TOGGLE	T	I/E AutoRange
IERANGE	IQUANT	9	I/E Range
POSFEEDENABLE	TOGGLE	F	Positive Feedback IR Comp
POSFEEDRESISTANCE	QUANT	0	Positive Feedback Resistance (ohm)
ACHSELECT	IQUANT	4	Ach Select
SENSECABLEID	IQUANT	14	Sense Cable ID
PWRCABLEID	IQUANT	7	Power Cable ID
DCCALDATE	LABEL	8/16/2024	DC Calibration Date
ACCALDATE	LABEL	8/16/2024	AC Calibration Date
THERMOSELECT	IQUANT	1	Thermo Select
FRAMEWORKVERSION	LABEL	7.10.3	Framework Version
INSTRUMENTVERSION	LABEL	4.91	Instrument Version
COMMVERSION	LABEL	5.10	Communications Version
CPUPLDVERSION	LABEL	6.00	CPU PLD Version
CTRLPLDVERSION	LABEL	3.21	CTRL PLD Version
PSTATPLDVERSION	LABEL	0.00	PSTAT PLD Version
COMPLIANCEVOLTAGE	IQUANT	0	Compliance Voltage
EXPERIMENTABORTED	TOGGLE	T	Experiment Aborted
CURVE	TABLE	13937
	Pt	T	Vf	Im	Vu	Sig	Ach	IERange	Over	Cycle	Temp
	#	s	V vs. Ref.	A	V	V	V	#	bits	#	deg C
	0	1	4.84107E-001	3.29009E-003	0.00000E+000	4.85050E-001	-9.59714E-005	9	....ih..i..	0	-327.56
	144	145	6.28157E-001	2.70427E-001	0.00000E+000	6.29050E-001	-1.26855E-004	12	...........	0	-327.56
	288	289	7.72058E-001	3.42760E-001	0.00000E+000	7.73050E-001	-1.26538E-004	12	...........	0	-327.56
	432	433	9.15905E-001	3.09970E-001	0.00000E+000	9.17050E-001	-1.23571E-004	12	...........	0	-327.56
	576	577	1.05984E+000	3.15784E-001	0.00000E+000	1.06105E+000	-1.23838E-004	12	...........	0	-327.56
	720	721	1.20353E+000	5.16323E-001	0.00000E+000	1.20505E+000	-1.26155E-004	12	...........	0	-327.56
	864	865	1.34718E+000	7.85804E-001	0.00000E+000	1.34905E+000	-1.28071E-004	12	...........	0	-327.56
	1008	1009	1.49089E+000	1.25562E+000	0.00000E+000	1.49305E+000	-1.24205E-004	12	...........	0	-327.56
	1152	1153	1.63455E+000	1.76239E+000	0.00000E+000	1.63705E+000	-1.31488E-004	12	...........	0	-327.56
	1296	1297	1.61660E+000	1.71086E+000	0.00000E+000	1.61905E+000	-1.23105E-004	12	...........	0	-327.56
	1440	1441	1.47276E+000	1.31036E+000	0.00000E+000	1.47505E+000	-1.25121E-004	12	...........	0	-327.56
	1584	1585	1.32916E+000	9.27461E-001	0.00000E+000	1.33105E+000	-1.21138E-004	12	...........	0	-327.56
	1728	1729	1.18554E+000	5.36348E-001	0.00000E+000	1.18705E+000	-1.24521E-004	12	...........	0	-327.56
	1872	1873	1.04156E+000	2.25597E-001	0.00000E+000	1.04305E+000	-1.22205E-004	11	...........	0	-327.56
	2016	2017	8.97921E-001	1.37547E-001	0.00000E+000	8.99050E-001	-1.19005E-004	11	...........	0	-327.56
	2160	2161	7.54091E-001	1.31287E-001	0.00000E+000	7.55050E-001	-1.21721E-004	11	...........	0	-327.56
	2304	2305	6.10252E-001	8.04314E-002	0.00000E+000	6.11050E-001	-1.24121E-004	11	...........	0	-327.56
	2448	2449	4.66469E-001	7.94897E-003	0.00000E+000	4.67050E-001	-1.27455E-004	10	...........	0	-327.56
	2592	2593	3.22720E-001	-8.48261E-002	0.00000E+000	3.23050E-001	-1.26405E-004	11	...........	0	-327.56
	2736	2737	1.79098E-001	-1.77549E-001	0.00000E+000	1.79050E-001	-1.25538E-004	11	...........	0	-327.56
	2880	2881	3.51321E-002	-3.23631E-001	0.00000E+000	3.50500E-002	-1.28988E-004	12	...........	0	-327.56
	3024	3025	-1.08553E-001	-3.55301E-001	0.00000E+000	-1.08950E-001	-1.30688E-004	12	...........	0	-327.56
	3168	3169	-2.52479E-001	-2.52750E-001	0.00000E+000	-2.52950E-001	-1.33705E-004	12	...........	0	-327.56
	3312	3313	-3.96416E-001	-3.02727E-001	0.00000E+000	-3.96950E-001	-1.29488E-004	12	...........	0	-327.56
	3456	3457	-5.40117E-001	-5.11347E-001	0.00000E+000	-5.40950E-001	-1.29838E-004	12	...........	0	-327.56
	3600	3601	-6.83764E-001	-8.14757E-001	0.00000E+000	-6.84950E-001	-1.31855E-004	12	...........	0	-327.56
	3744	3745	-8.27445E-001	-1.13477E+000	0.00000E+000	-8.28950E-001	-1.31005E-004	12	...........	0	-327.56
	3888	3889	-9.71126E-001	-1.46865E+000	0.00000E+000	-9.72950E-001	-1.28555E-004	12	...........	0	-327.56
	4032	4033	-8.81595E-001	-1.04182E+000	0.00000E+000	-8.83000E-001	-1.30888E-004	12	...........	1	-327.56
	4176	4177	-7.37848E-001	-6.37041E-001	0.00000E+000	-7.39000E-001	-1.27888E-004	12	...........	1	-327.56
	4320	4321	-5.94231E-001	-3.41049E-001	0.00000E+000	-5.95000E-001	-1.29955E-004	12	...........	1	-327.56
	4464	4465	-4.50425E-001	-6.62323E-002	0.00000E+000	-4.51000E-001	-1.28621E-004	11	...........	1	-327.56
	4608	4609	-3.06932E-001	1.49041E-001	0.00000E+000	-3.07000E-001	-1.28405E-004	11	...........	1	-327.56
	4752	4753	-1.63252E-001	2.51651E-001	0.00000E+000	-1.63000E-001	-1.28171E-004	11	...........	1	-327.56
	4896	4897	-1.90895E-002	3.47210E-001	0.00000E+000	-1.90000E-002	-1.29638E-004	12	...........	1	-327.56
	5040	5041	1.24510E-001	3.82706E-001	0.00000E+000	1.25000E-001	-1.28088E-004	12	...........	1	-327.56
	5184	5185	2.68274E-001	6.16644E-001	0.00000E+000	2.69000E-001	-1.33521E-004	12	...........	1	-327.56
	5328	5329	4.12025E-001	8.00471E-001	0.00000E+000	4.13000E-001	-1.33771E-004	12	...........	1	-327.56
	5472	5473	5.55768E-001	9.99745E-001	0.00000E+000	5.57000E-001	-1.29388E-004	12	...........	1	-327.56
	5616	5617	6.99565E-001	1.28385E+000	0.00000E+000	7.01000E-001	-1.31288E-004	12	...........	1	-327.56
	5760	5761	8.43352E-001	1.31009E+000	0.00000E+000	8.45000E-001	-1.30671E-004	12	...........	1	-327.56
	5904	5905	9.87332E-001	9.77676E-001	0.00000E+000	9.89000E-001	-1.32171E-004	12	...........	1	-327.56
	6048	6049	1.13133E+000	8.77768E-001	0.00000E+000	1.13300E+000	-1.29138E-004	12	...........	1	-327.56
	6192	6193	1.27520E+000	8.62262E-001	0.00000E+000	1.27700E+000	-1.27605E-004	12	...........	1	-327.56
	6336	6337	1.41904E+000	1.01316E+000	0.00000E+000	1.42100E+000	-1.24121E-004	12	...........	1	-327.56
	6480	6481	1.56273E+000	1.27586E+000	0.00000E+000	1.56500E+000	-1.27671E-004	12	...........	1	-327.56
	6624	6625	1.68843E+000	1.85347E+000	0.00000E+000	1.69100E+000	-1.26238E-004	12	...........	1	-327.56
	6768	6769	1.54471E+000	1.36892E+000	0.00000E+000	1.54700E+000	-1.21155E-004	12	...........	1	-327.56
	6912	6913	1.40101E+000	9.32462E-001	0.00000E+000	1.40300E+000	-1.25071E-004	12	...........	1	-327.56
	7056	7057	1.25750E+000	5.15520E-001	0.00000E+000	1.25900E+000	-1.23071E-004	12	...........	1	-327.56
	7200	7201	1.11372E+000	2.77195E-001	0.00000E+000	1.11500E+000	-1.24305E-004	12	...........	1	-327.56
	7344	7345	9.69599E-001	2.26144E-001	0.00000E+000	9.71000E-001	-1.24155E-004	11	...........	1	-327.56
	7488	7489	8.25786E-001	2.21268E-001	0.00000E+000	8.27000E-001	-1.27038E-004	11	...........	1	-327.56
	7632	7633	6.81934E-001	1.96874E-001	0.00000E+000	6.83000E-001	-1.26805E-004	11	...........	1	-327.56
	7776	7777	5.38116E-001	1.76198E-001	0.00000E+000	5.39000E-001	-1.25838E-004	11	...........	1	-327.56
	7920	7921	3.94367E-001	1.17638E-001	0.00000E+000	3.95000E-001	-1.27471E-004	11	...........	1	-327.56
	8064	8065	2.50551E-001	6.93298E-002	0.00000E+000	2.51000E-001	-1.32388E-004	11	...........	1	-327.56
	8208	8209	1.06875E-001	-5.12909E-002	0.00000E+000	1.07000E-001	-1.29838E-004	11	...........	1	-327.56
	8352	8353	-3.68117E-002	-1.09600E-001	0.00000E+000	-3.70000E-002	-1.31738E-004	11	...........	1	-327.56
	8496	8497	-1.80540E-001	-1.40709E-001	0.00000E+000	-1.81000E-001	-1.29971E-004	11	...........	1	-327.56
	8640	8641	-3.24329E-001	-1.55791E-001	0.00000E+000	-3.25000E-001	-1.26788E-004	11	...........	1	-327.56
	8784	8785	-4.68391E-001	-3.23922E-001	0.00000E+000	-4.69000E-001	-1.31305E-004	12	...........	1	-327.56
	8928	8929	-6.12037E-001	-6.00245E-001	0.00000E+000	-6.13000E-001	-1.31605E-004	12	...........	1	-327.56
	9072	9073	-7.55693E-001	-9.40712E-001	0.00000E+000	-7.57000E-001	-1.33355E-004	12	...........	1	-327.56
	9216	9217	-8.99337E-001	-1.28077E+000	0.00000E+000	-9.01000E-001	-1.29521E-004	12	...........	1	-327.56
	9360	9361	-9.53362E-001	-1.21130E+000	0.00000E+000	-9.55000E-001	-1.26871E-004	12	...........	2	-327.56
	9504	9505	-8.09692E-001	-8.33146E-001	0.00000E+000	-8.11000E-001	-1.29988E-004	12	...........	2	-327.56
	9648	9649	-6.66078E-001	-4.98720E-001	0.00000E+000	-6.67000E-001	-1.30738E-004	12	...........	2	-327.56
	9792	9793	-5.22219E-001	-1.74315E-001	0.00000E+000	-5.23000E-001	-1.27088E-004	11	...........	2	-327.56
	9936	9937	-3.78740E-001	1.07506E-001	0.00000E+000	-3.79000E-001	-1.28938E-004	11	...........	2	-327.56
	10080	10081	-2.35156E-001	2.40461E-001	0.00000E+000	-2.35000E-001	-1.31771E-004	11	...........	2	-327.56
	10224	10225	-9.09754E-002	2.69342E-001	0.00000E+000	-9.10000E-002	-1.33005E-004	12	...........	2	-327.56
	10368	10369	5.26758E-002	3.40136E-001	0.00000E+000	5.30000E-002	-1.34088E-004	12	...........	2	-327.56
	10512	10513	1.96305E-001	6.00702E-001	0.00000E+000	1.97000E-001	-1.31771E-004	12	...........	2	-327.56
	10656	10657	3.40080E-001	8.09919E-001	0.00000E+000	3.41000E-001	-1.32155E-004	12	...........	2	-327.56
	10800	10801	4.83846E-001	9.86925E-001	0.00000E+000	4.85000E-001	-1.28755E-004	12	...........	2	-327.56
	10944	10945	6.27550E-001	1.19755E+000	0.00000E+000	6.29000E-001	-1.34955E-004	12	...........	2	-327.56
	11088	11089	7.71398E-001	1.46600E+000	0.00000E+000	7.73000E-001	-1.32921E-004	12	...........	2	-327.56
	11232	11233	9.15297E-001	1.27384E+000	0.00000E+000	9.17000E-001	-1.30871E-004	12	...........	2	-327.56
	11376	11377	1.05948E+000	8.07209E-001	0.00000E+000	1.06100E+000	-1.25205E-004	12	...........	2	-327.56
	11520	11521	1.20337E+000	6.73774E-001	0.00000E+000	1.20500E+000	-1.27671E-004	12	...........	2	-327.56
	11664	11665	1.34715E+000	7.85845E-001	0.00000E+000	1.34900E+000	-1.28921E-004	12	...........	2	-327.56
	11808	11809	1.49097E+000	1.01573E+000	0.00000E+000	1.49300E+000	-1.25788E-004	12	...........	2	-327.56
	11952	11953	1.63455E+000	1.59908E+000	0.00000E+000	1.63700E+000	-1.33221E-004	12	...........	2	-327.56
	12096	12097	1.61661E+000	1.57698E+000	0.00000E+000	1.61900E+000	-1.27221E-004	12	...........	2	-327.56
	12240	12241	1.47282E+000	1.11076E+000	0.00000E+000	1.47500E+000	-1.27688E-004	12	...........	2	-327.56
	12384	12385	1.32927E+000	7.01458E-001	0.00000E+000	1.33100E+000	-1.25171E-004	12	...........	2	-327.56
	12528	12529	1.18560E+000	3.69111E-001	0.00000E+000	1.18700E+000	-1.21805E-004	12	...........	2	-327.56
	12672	12673	1.04154E+000	2.31926E-001	0.00000E+000	1.04300E+000	-1.24521E-004	11	...........	2	-327.56
	12816	12817	8.97758E-001	2.16221E-001	0.00000E+000	8.99000E-001	-1.23355E-004	11	...........	2	-327.56
	12960	12961	7.53948E-001	1.90024E-001	0.00000E+000	7.55000E-001	-1.23788E-004	11	...........	2	-327.56
	13104	13105	6.10027E-001	1.84202E-001	0.00000E+000	6.11000E-001	-1.26405E-004	11	...........	2	-327.56
	13248	13249	4.66273E-001	1.52809E-001	0.00000E+000	4.67000E-001	-1.24955E-004	11	...........	2	-327.56
	13392	13393	3.22388E-001	8.33865E-002	0.00000E+000	3.23000E-001	-1.27438E-004	11	...........	2	-327.56
	13536	13537	1.78512E-001	1.60517E-002	0.00000E+000	1.79000E-001	-1.30171E-004	10	...........	2	-327.56
	13680	13681	3.50240E-002	-7.42464E-002	0.00000E+000	3.50000E-002	-1.30405E-004	11	...........	2	-327.56
	13824	13825	-1.08661E-001	-9.36602E-002	0.00000E+000	-1.09000E-001	-1.32888E-004	11	...........	2	-327.56
	13936	13937	-2.20533E-001	-8.49647E-002	0.00000E+000	-2.21000E-001	-1.35538E-004	11	...........	2	-327.56