File: testing/data/240902_16_MCL13_cswWE_CV10_750C_CO2.DTA
EXPLAIN
TAG	CV
TITLE	LABEL	Cyclic Voltammetry	Test Identifier
DATE	LABEL	9/3/2024	Date
TIME	LABEL	16:34:03	Time
NOTES	NOTES	5	Notes...
	cswWE - carbon steel wire
cspWE - carbon steel plate 2x2 tapered

Carbon steel plate counter electrode
Carbon steel wire reference electrode
PSTAT	PSTAT	REF3000-48128	Potentiostat
VINIT	POTEN	0.00000E+000	T	Initial E (V)
VLIMIT1	POTEN	1.70000E+000	F	Scan Limit 1 (V)
VLIMIT2	POTEN	-1.00000E+000	F	Scan Limit 2 (V)
VFINAL	POTEN	1.70000E+000	F	Final E (V)
SCANRATE	QUANT	9.99998E+000	Scan Rate (mV/s)
STEPSIZE	QUANT	1.00000E+000	Step Size (mV)
CYCLES	IQUANT	4	Cycles (#)
IMODE	SELECTOR	0	I/E Range Mode
IRANGE	QUANT	3.00000E-001	Max Current (mA)
AREA	QUANT	1.00000E+000	Sample Area (cm^2)
EQDELAY	QUANT	0.00000E+000	Equil. Time (s)
IRCOMP	SELECTOR	0	IRComp
PFCOR	QUANT	5.00000E+001	PF Corr. (ohm)
SAMPLINGMODE	SELECTOR	1	Sampling Mode
EOC	QUANT	0.2743672	Open Circuit (V)
ELECTRODETYPE	SELECTOR	0	Electrode Type
STRIPPING	TOGGLE	F	Used for Stripping
SEQUENCER	TOGGLE	TRUE	Run as Sequence
PSTATMODEL	IQUANT	5	Pstat Model
PSTATSECTION	LABEL	REF3000-48128	Pstat Section
PSTATSERIALNO	LABEL	48128	Pstat Serial Number
CTRLMODE	IQUANT	1	Control Mode
ELECTROMETER	IQUANT	0	RE=0 or CS=1
IESTAB	IQUANT	2	I/E Stability
CASPEED	IQUANT	4	Control Amp Speed
CONVENTION	IQUANT	1	Current Convention
ICHRANGE	IQUANT	2	Ich Range
ICHRANGEMODE	TOGGLE	F	Ich Auto Range
ICHOFFSETENABLE	TOGGLE	F	Ich Offset Enable
ICHOFFSET	QUANT	0	Ich Offset (V)
ICHFILTER	IQUANT	2	Ich Filter
VCHRANGE	IQUANT	2	Vch Range
VCHRANGEMODE	TOGGLE	F	Vch Auto Range
VCHOFFSETENABLE	TOGGLE	F	Vch Offset Enable
VCHOFFSET	QUANT	0	Vch Offset (V)
VCHFILTER	IQUANT	2	Vch Filter
ACHRANGE	IQUANT	2	Ach Range
ACHOFFSETENABLE	TOGGLE	F	Ach Offset Enable
ACHOFFSET	QUANT	0	Ach Offset (V)
ACHFILTER	IQUANT	1	Ach Filter
IERANGELOWERLIMIT	IQUANT	2	I/E Range Lower Limit
IERANGEMODE	TOGGLE	T	I/E AutoRange
IERANGE	IQUANT	9	I/E Range
POSFEEDENABLE	TOGGLE	F	Positive Feedback IR Comp
POSFEEDRESISTANCE	QUANT	0	Positive Feedback Resistance (ohm)
ACHSELECT	IQUANT	4	Ach Select
SENSECABLEID	IQUANT	14	Sense Cable ID
PWRCABLEID	IQUANT	7	Power Cable ID
DCCALDATE	LABEL	8/16/2024	DC Calibration Date
ACCALDATE	LABEL	8/16/2024	AC Calibration Date
THERMOSELECT	IQUANT	1	Thermo Select
FRAMEWORKVERSION	LABEL	7.10.3	Framework Version
INSTRUMENTVERSION	LABEL	4.91	Instrument Version
COMMVERSION	LABEL	5.10	Communications Version
CPUPLDVERSION	LABEL	6.00	CPU PLD Version
CTRLPLDVERSION	LABEL	3.21	CTRL PLD Version
PSTATPLDVERSION	LABEL	0.00	PSTAT PLD Version
COMPLIANCEVOLTAGE	IQUANT	0	Compliance Voltage
CURVE1	TABLE
	Pt	T	Vf	Im	Vu	Sig	Ach	IERange	Over	Temp
	#	s	V vs. Ref.	A	V	V	V	#	bits	deg C
	0	0.1	2.73944E-001	1.11027E-004	0.00000E+000	2.74350E-001	-1.14088E-004	9	...........	-327.56
	42	4.3	3.15641E-001	2.69892E-003	0.00000E+000	3.16350E-001	-1.17288E-004	9	...........	-327.56
	84	8.5	3.57821E-001	6.11581E-003	0.00000E+000	3.58350E-001	-1.12288E-004	10	...........	-327.56
	126	12.7	3.99721E-001	1.03081E-002	0.00000E+000	4.00350E-001	-1.13088E-004	10	...........	-327.56
	168	16.9	4.41711E-001	1.44931E-002	0.00000E+000	4.42350E-001	-1.15488E-004	10	...........	-327.56
	210	21.1	4.83594E-001	1.67254E-002	0.00000E+000	4.84350E-001	-1.12688E-004	10	...........	-327.56
	252	25.3	5.25484E-001	1.66963E-002	0.00000E+000	5.26350E-001	-1.12688E-004	10	...........	-327.56
	294	29.5	5.67546E-001	1.58805E-002	0.00000E+000	5.68350E-001	-1.27488E-004	10	...........	-327.56
	336	33.7	6.09535E-001	1.47093E-002	0.00000E+000	6.10350E-001	-1.24488E-004	10	...........	-327.56
	378	37.9	6.51543E-001	1.38003E-002	0.00000E+000	6.52350E-001	-1.16288E-004	10	...........	-327.56
	420	42.1	6.93498E-001	1.29973E-002	0.00000E+000	6.94350E-001	-1.19688E-004	10	...........	-327.56
	462	46.3	7.35389E-001	1.26098E-002	0.00000E+000	7.36350E-001	-1.26688E-004	10	...........	-327.56
	504	50.5	7.77443E-001	1.24751E-002	0.00000E+000	7.78350E-001	-1.18888E-004	10	...........	-327.56
	546	54.7	8.19340E-001	1.23707E-002	0.00000E+000	8.20350E-001	-1.31488E-004	10	...........	-327.56
	588	58.9	8.61260E-001	1.24504E-002	0.00000E+000	8.62350E-001	-1.17488E-004	10	...........	-327.56
	630	63.1	9.03290E-001	1.25469E-002	0.00000E+000	9.04350E-001	-1.21088E-004	10	...........	-327.56
	672	67.3	9.45190E-001	1.27915E-002	0.00000E+000	9.46350E-001	-1.15688E-004	10	...........	-327.56
	714	71.5	9.87130E-001	1.31225E-002	0.00000E+000	9.88350E-001	-1.21688E-004	10	...........	-327.56
	756	75.7	1.02915E+000	1.36611E-002	0.00000E+000	1.03035E+000	-1.19888E-004	10	...........	-327.56
	798	79.9	1.07106E+000	1.47868E-002	0.00000E+000	1.07235E+000	-1.14288E-004	10	...........	-327.56
	840	84.1	1.11304E+000	1.68569E-002	0.00000E+000	1.11435E+000	-1.19888E-004	10	...........	-327.56
	882	88.3	1.15494E+000	1.99654E-002	0.00000E+000	1.15635E+000	-1.22088E-004	10	...........	-327.56
	924	92.5	1.19679E+000	2.46544E-002	0.00000E+000	1.19835E+000	-1.20088E-004	10	...........	-327.56
	966	96.7	1.23910E+000	3.39135E-002	0.00000E+000	1.24035E+000	-1.19688E-004	11	...........	-327.56
	1008	100.9	1.28101E+000	5.23079E-002	0.00000E+000	1.28235E+000	-1.27488E-004	11	...........	-327.56
	1050	105.1	1.32298E+000	7.91822E-002	0.00000E+000	1.32435E+000	-1.19888E-004	11	...........	-327.56
	1092	109.3	1.36485E+000	1.15774E-001	0.00000E+000	1.36635E+000	-1.16688E-004	11	...........	-327.56
	1134	113.5	1.40670E+000	1.63549E-001	0.00000E+000	1.40835E+000	-1.23288E-004	11	...........	-327.56
	1176	117.7	1.44853E+000	2.19005E-001	0.00000E+000	1.45035E+000	-1.24688E-004	11	...........	-327.56
	1218	121.9	1.49077E+000	2.78587E-001	0.00000E+000	1.49235E+000	-1.18088E-004	12	...........	-327.56
	1260	126.1	1.53272E+000	3.34249E-001	0.00000E+000	1.53435E+000	-1.19688E-004	12	...........	-327.56
	1302	130.3	1.57455E+000	3.98786E-001	0.00000E+000	1.57635E+000	-1.19488E-004	12	...........	-327.56
	1344	134.5	1.61654E+000	4.66540E-001	0.00000E+000	1.61835E+000	-1.20688E-004	12	...........	-327.56
	1386	138.7	1.65838E+000	5.47688E-001	0.00000E+000	1.66035E+000	-1.19288E-004	12	...........	-327.56
	1428	142.9	1.69637E+000	6.35082E-001	0.00000E+000	1.69835E+000	-1.19288E-004	12	...........	-327.56
	1470	147.1	1.65437E+000	5.79146E-001	0.00000E+000	1.65635E+000	-1.21288E-004	12	...........	-327.56
	1512	151.3	1.61244E+000	5.37223E-001	0.00000E+000	1.61435E+000	-1.15488E-004	12	...........	-327.56
	1554	155.5	1.57057E+000	4.82880E-001	0.00000E+000	1.57235E+000	-1.31688E-004	12	...........	-327.56
	1596	159.7	1.52860E+000	4.30713E-001	0.00000E+000	1.53035E+000	-1.22688E-004	12	...........	-327.56
	1638	163.9	1.48673E+000	3.69409E-001	0.00000E+000	1.48835E+000	-1.24088E-004	12	...........	-327.56
	1680	168.1	1.44477E+000	3.14255E-001	0.00000E+000	1.44635E+000	-1.21888E-004	12	...........	-327.56
	1722	172.3	1.40279E+000	2.58962E-001	0.00000E+000	1.40435E+000	-1.25488E-004	12	...........	-327.56
	1764	176.5	1.36070E+000	2.05250E-001	0.00000E+000	1.36235E+000	-1.16288E-004	11	...........	-327.56
	1806	180.7	1.31876E+000	1.50852E-001	0.00000E+000	1.32035E+000	-1.24088E-004	11	...........	-327.56
	1848	184.9	1.27693E+000	1.03412E-001	0.00000E+000	1.27835E+000	-1.17888E-004	11	...........	-327.56
	1890	189.1	1.23508E+000	6.28517E-002	0.00000E+000	1.23635E+000	-1.19488E-004	11	...........	-327.56
	1932	193.3	1.19303E+000	3.57616E-002	0.00000E+000	1.19435E+000	-1.22888E-004	11	...........	-327.56
	1974	197.5	1.15094E+000	1.87722E-002	0.00000E+000	1.15235E+000	-1.15688E-004	10	...........	-327.56
	2016	201.7	1.10915E+000	1.05596E-002	0.00000E+000	1.11035E+000	-1.19888E-004	10	...........	-327.56
	2058	205.9	1.06716E+000	7.11850E-003	0.00000E+000	1.06835E+000	-1.20688E-004	10	...........	-327.56
	2100	210.1	1.02523E+000	5.08141E-003	0.00000E+000	1.02635E+000	-1.21688E-004	10	...........	-327.56
	2142	214.3	9.83308E-001	4.27290E-003	0.00000E+000	9.84350E-001	-1.20888E-004	10	...........	-327.56
	2184	218.5	9.41295E-001	3.82325E-003	0.00000E+000	9.42350E-001	-1.20288E-004	10	...........	-327.56
	2226	222.7	8.99420E-001	3.52937E-003	0.00000E+000	9.00350E-001	-1.20088E-004	10	...........	-327.56
	2268	226.9	8.57478E-001	3.09458E-003	0.00000E+000	8.58350E-001	-1.12088E-004	10	...........	-327.56
	2310	231.1	8.15480E-001	2.68811E-003	0.00000E+000	8.16350E-001	-1.22488E-004	10	...........	-327.56
	2352	235.3	7.73298E-001	2.23018E-003	0.00000E+000	7.74350E-001	-1.09488E-004	9	...........	-327.56
	2394	239.5	7.31347E-001	1.53548E-003	0.00000E+000	7.32350E-001	-1.28488E-004	9	...........	-327.56
	2436	243.7	6.89521E-001	1.08522E-003	0.00000E+000	6.90350E-001	-1.24688E-004	9	...........	-327.56
	2478	247.9	6.47650E-001	3.68571E-004	0.00000E+000	6.48350E-001	-1.26288E-004	9	...........	-327.56
	2520	252.1	6.05758E-001	-5.77955E-004	0.00000E+000	6.06350E-001	-1.25288E-004	9	...........	-327.56
	2562	256.3	5.63948E-001	-1.77576E-003	0.00000E+000	5.64350E-001	-1.16688E-004	9	...........	-327.56
	2604	260.5	5.21856E-001	-3.31991E-003	0.00000E+000	5.22350E-001	-1.23088E-004	10	...........	-327.56
	2646	264.7	4.79922E-001	-5.49386E-003	0.00000E+000	4.80350E-001	-1.22688E-004	10	...........	-327.56
	2688	268.9	4.37975E-001	-7.74211E-003	0.00000E+000	4.38350E-001	-1.24888E-004	10	...........	-327.56
	2730	273.1	3.96032E-001	-9.77500E-003	0.00000E+000	3.96350E-001	-1.21888E-004	10	...........	-327.56
	2772	277.3	3.54008E-001	-1.05230E-002	0.00000E+000	3.54350E-001	-1.17288E-004	10	...........	-327.56
	2814	281.5	3.12108E-001	-1.12243E-002	0.00000E+000	3.12350E-001	-1.21488E-004	10	...........	-327.56
	2856	285.7	2.70151E-001	-1.19886E-002	0.00000E+000	2.70350E-001	-1.23488E-004	10	...........	-327.56
	2898	289.9	2.28175E-001	-1.22844E-002	0.00000E+000	2.28350E-001	-1.26288E-004	10	...........	-327.56
	2940	294.1	1.86257E-001	-1.26788E-002	0.00000E+000	1.86350E-001	-1.14888E-004	10	...........	-327.56
	2982	298.3	1.44225E-001	-1.27612E-002	0.00000E+000	1.44350E-001	-1.19288E-004	10	...........	-327.56
	3024	302.5	1.02333E-001	-1.29118E-002	0.00000E+000	1.02350E-001	-1.18688E-004	10	...........	-327.56
	3066	306.7	6.03889E-002	-1.32998E-002	0.00000E+000	6.03500E-002	-1.17288E-004	10	...........	-327.56
	3108	310.9	1.83659E-002	-1.40637E-002	0.00000E+000	1.83500E-002	-1.15288E-004	10	...........	-327.56
	3150	315.1	-2.33305E-002	-1.50545E-002	0.00000E+000	-2.36500E-002	-1.20288E-004	10	...........	-327.56
	3192	319.3	-6.52802E-002	-1.59512E-002	0.00000E+000	-6.56500E-002	-1.15888E-004	10	...........	-327.56
	3234	323.5	-1.07260E-001	-1.68342E-002	0.00000E+000	-1.07650E-001	-1.15488E-004	10	...........	-327.56
	3276	327.7	-1.49189E-001	-1.79492E-002	0.00000E+000	-1.49650E-001	-1.17688E-004	10	...........	-327.56
	3318	331.9	-1.91256E-001	-1.89303E-002	0.00000E+000	-1.91650E-001	-1.10888E-004	10	...........	-327.56
	3360	336.1	-2.33107E-001	-2.08420E-002	0.00000E+000	-2.33650E-001	-1.13888E-004	10	...........	-327.56
	3402	340.3	-2.74973E-001	-2.43215E-002	0.00000E+000	-2.75650E-001	-1.19088E-004	10	...........	-327.56
	3444	344.5	-3.17276E-001	-3.05142E-002	0.00000E+000	-3.17650E-001	-1.22488E-004	11	...........	-327.56
	3486	348.7	-3.59206E-001	-3.64742E-002	0.00000E+000	-3.59650E-001	-1.17288E-004	11	...........	-327.56
	3528	352.9	-4.01120E-001	-4.37536E-002	0.00000E+000	-4.01650E-001	-1.20888E-004	11	...........	-327.56
	3570	357.1	-4.43139E-001	-6.07693E-002	0.00000E+000	-4.43650E-001	-1.18888E-004	11	...........	-327.56
	3612	361.3	-4.85010E-001	-8.12772E-002	0.00000E+000	-4.85650E-001	-1.13088E-004	11	...........	-327.56
	3654	365.5	-5.26925E-001	-1.07206E-001	0.00000E+000	-5.27650E-001	-1.23888E-004	11	...........	-327.56
	3696	369.7	-5.68879E-001	-1.39657E-001	0.00000E+000	-5.69650E-001	-1.16288E-004	11	...........	-327.56
	3738	373.9	-6.10691E-001	-2.09889E-001	0.00000E+000	-6.11650E-001	-1.19488E-004	11	...........	-327.56
	3780	378.1	-6.52633E-001	-2.51392E-001	0.00000E+000	-6.53650E-001	-1.09088E-004	11	...........	-327.56
	3822	382.3	-6.94596E-001	-2.29736E-001	0.00000E+000	-6.95650E-001	-1.15688E-004	11	...........	-327.56
	3864	386.5	-7.36509E-001	-2.42333E-001	0.00000E+000	-7.37650E-001	-1.08288E-004	11	...........	-327.56
	3906	390.7	-7.78794E-001	-2.94982E-001	0.00000E+000	-7.79650E-001	-1.20488E-004	12	...........	-327.56
	3948	394.9	-8.20610E-001	-3.62322E-001	0.00000E+000	-8.21650E-001	-1.20488E-004	12	...........	-327.56
	3990	399.1	-8.62511E-001	-4.36322E-001	0.00000E+000	-8.63650E-001	-1.19488E-004	12	...........	-327.56
	4032	403.3	-9.04550E-001	-4.63899E-001	0.00000E+000	-9.05650E-001	-1.20888E-004	12	...........	-327.56
	4074	407.5	-9.46508E-001	-3.40479E-001	0.00000E+000	-9.47650E-001	-1.14888E-004	12	...........	-327.56
	4116	411.7	-9.88406E-001	-3.95242E-001	0.00000E+000	-9.89650E-001	-1.14288E-004	12	...........	-327.56
	4126	412.7	-9.98438E-001	-4.13716E-001	0.00000E+000	-9.99650E-001	-1.21688E-004	12	...........	-327.56
CURVE2	TABLE
	Pt	T	Vf	Im	Vu	Sig	Ach	IERange	Over	Temp
	#	s	V vs. Ref.	A	V	V	V	#	bits	deg C
	4127	412.8	-9.97786E-001	-4.12500E-001	0.00000E+000	-9.99000E-001	-1.15488E-004	12	...........	-327.56
	4183	418.4	-9.41847E-001	-3.20907E-001	0.00000E+000	-9.43000E-001	-1.18288E-004	12	...........	-327.56
	4239	424	-8.85958E-001	-2.50177E-001	0.00000E+000	-8.87000E-001	-1.12488E-004	12	...........	-327.56
	4295	429.6	-8.29937E-001	-1.85536E-001	0.00000E+000	-8.31000E-001	-1.14888E-004	11	...........	-327.56
	4351	435.2	-7.74072E-001	-1.20590E-001	0.00000E+000	-7.75000E-001	-1.10088E-004	11	...........	-327.56
	4407	440.8	-7.18153E-001	-7.81494E-002	0.00000E+000	-7.19000E-001	-1.23088E-004	11	...........	-327.56
	4463	446.4	-6.62251E-001	-5.14634E-002	0.00000E+000	-6.63000E-001	-1.19088E-004	11	...........	-327.56
	4519	452	-6.06302E-001	-4.98438E-003	0.00000E+000	-6.07000E-001	-1.20688E-004	10	...........	-327.56
	4575	457.6	-5.50565E-001	7.87147E-002	0.00000E+000	-5.51000E-001	-1.10088E-004	11	...........	-327.56
	4631	463.2	-4.94812E-001	1.47759E-001	0.00000E+000	-4.95000E-001	-1.25288E-004	11	...........	-327.56
	4687	468.8	-4.38786E-001	1.15593E-001	0.00000E+000	-4.39000E-001	-1.14288E-004	11	...........	-327.56
	4743	474.4	-3.82835E-001	1.46148E-001	0.00000E+000	-3.83000E-001	-1.20488E-004	11	...........	-327.56
	4799	480	-3.26937E-001	2.03412E-001	0.00000E+000	-3.27000E-001	-1.16088E-004	11	...........	-327.56
	4855	485.6	-2.70889E-001	1.24087E-001	0.00000E+000	-2.71000E-001	-1.18688E-004	11	...........	-327.56
	4911	491.2	-2.14901E-001	6.86819E-002	0.00000E+000	-2.15000E-001	-1.23088E-004	11	...........	-327.56
	4967	496.8	-1.58851E-001	2.90988E-002	0.00000E+000	-1.59000E-001	-1.17088E-004	11	...........	-327.56
	5023	502.4	-1.03153E-001	2.41656E-002	0.00000E+000	-1.03000E-001	-1.14088E-004	10	...........	-327.56
	5079	508	-4.69400E-002	2.86504E-002	0.00000E+000	-4.70000E-002	-1.13488E-004	11	...........	-327.56
	5135	513.6	8.81025E-003	3.94177E-002	0.00000E+000	9.00003E-003	-1.19688E-004	11	...........	-327.56
	5191	519.2	6.46317E-002	6.98346E-002	0.00000E+000	6.50000E-002	-1.10488E-004	11	...........	-327.56
	5247	524.8	1.20567E-001	1.00185E-001	0.00000E+000	1.21000E-001	-1.15688E-004	11	...........	-327.56
	5303	530.4	1.76499E-001	1.26619E-001	0.00000E+000	1.77000E-001	-1.19488E-004	11	...........	-327.56
	5359	536	2.32469E-001	1.30253E-001	0.00000E+000	2.33000E-001	-1.14888E-004	11	...........	-327.56
	5415	541.6	2.88475E-001	1.12612E-001	0.00000E+000	2.89000E-001	-1.14088E-004	11	...........	-327.56
	5471	547.2	3.44447E-001	9.60880E-002	0.00000E+000	3.45000E-001	-1.22488E-004	11	...........	-327.56
	5527	552.8	4.00338E-001	8.91001E-002	0.00000E+000	4.01000E-001	-1.24288E-004	11	...........	-327.56
	5583	558.4	4.56362E-001	6.27677E-002	0.00000E+000	4.57000E-001	-1.29488E-004	11	...........	-327.56
	5639	564	5.12338E-001	4.77612E-002	0.00000E+000	5.13000E-001	-1.20888E-004	11	...........	-327.56
	5695	569.6	5.68348E-001	4.06766E-002	0.00000E+000	5.69000E-001	-1.19088E-004	11	...........	-327.56
	5751	575.2	6.24320E-001	3.59726E-002	0.00000E+000	6.25000E-001	-1.17288E-004	11	...........	-327.56
	5807	580.8	6.80194E-001	2.98550E-002	0.00000E+000	6.81000E-001	-1.24488E-004	11	...........	-327.56
	5863	586.4	7.35917E-001	2.47305E-002	0.00000E+000	7.37000E-001	-1.25888E-004	10	...........	-327.56
	5919	592	7.91918E-001	2.26325E-002	0.00000E+000	7.93000E-001	-1.22888E-004	10	...........	-327.56
	5975	597.6	8.47871E-001	2.25341E-002	0.00000E+000	8.49000E-001	-1.16488E-004	10	...........	-327.56
	6031	603.2	9.03845E-001	2.22532E-002	0.00000E+000	9.05000E-001	-1.21888E-004	10	...........	-327.56
	6087	608.8	9.59759E-001	2.24611E-002	0.00000E+000	9.61000E-001	-1.16288E-004	10	...........	-327.56
	6143	614.4	1.01565E+000	2.33252E-002	0.00000E+000	1.01700E+000	-1.10688E-004	10	...........	-327.56
	6199	620	1.07157E+000	2.52114E-002	0.00000E+000	1.07300E+000	-1.19288E-004	10	...........	-327.56
	6255	625.6	1.12784E+000	2.74312E-002	0.00000E+000	1.12900E+000	-1.23688E-004	11	...........	-327.56
	6311	631.2	1.18378E+000	3.40392E-002	0.00000E+000	1.18500E+000	-1.15488E-004	11	...........	-327.56
	6367	636.8	1.23973E+000	4.70628E-002	0.00000E+000	1.24100E+000	-1.19688E-004	11	...........	-327.56
	6423	642.4	1.29556E+000	7.08951E-002	0.00000E+000	1.29700E+000	-1.13688E-004	11	...........	-327.56
	6479	648	1.35146E+000	1.07106E-001	0.00000E+000	1.35300E+000	-1.14688E-004	11	...........	-327.56
[...]
	20719	2072	-6.06448E-001	3.36676E-002	0.00000E+000	-6.07000E-001	-1.27288E-004	11	...........	-327.56
	20747	2074.8	-5.78504E-001	6.18044E-002	0.00000E+000	-5.79000E-001	-1.19488E-004	11	...........	-327.56
	20775	2077.6	-5.50587E-001	9.57233E-002	0.00000E+000	-5.51000E-001	-1.18488E-004	11	...........	-327.56
	20803	2080.4	-5.22676E-001	9.54009E-002	0.00000E+000	-5.23000E-001	-1.17288E-004	11	...........	-327.56
	20831	2083.2	-4.94653E-001	7.44718E-002	0.00000E+000	-4.95000E-001	-1.28688E-004	11	...........	-327.56
	20859	2086	-4.66709E-001	8.34936E-002	0.00000E+000	-4.67000E-001	-1.27888E-004	11	...........	-327.56
	20887	2088.8	-4.38751E-001	1.00213E-001	0.00000E+000	-4.39000E-001	-1.19288E-004	11	...........	-327.56
	20915	2091.6	-4.10800E-001	1.23765E-001	0.00000E+000	-4.11000E-001	-1.20888E-004	11	...........	-327.56
	20943	2094.4	-3.82840E-001	1.52699E-001	0.00000E+000	-3.83000E-001	-1.18488E-004	11	...........	-327.56
	20971	2097.2	-3.54724E-001	8.08328E-002	0.00000E+000	-3.55000E-001	-1.18288E-004	11	...........	-327.56
	20999	2100	-3.26730E-001	8.03455E-002	0.00000E+000	-3.27000E-001	-1.18088E-004	11	...........	-327.56
	21027	2102.8	-2.98691E-001	2.34251E-002	0.00000E+000	-2.99000E-001	-1.21088E-004	11	...........	-327.56
	21055	2105.6	-2.70801E-001	9.68949E-003	0.00000E+000	-2.71000E-001	-1.15488E-004	10	...........	-327.56
	21083	2108.4	-2.42866E-001	7.35817E-003	0.00000E+000	-2.43000E-001	-1.20688E-004	10	...........	-327.56
	21111	2111.2	-2.14865E-001	6.15075E-003	0.00000E+000	-2.15000E-001	-1.13288E-004	10	...........	-327.56
	21139	2114	-1.86865E-001	6.04714E-003	0.00000E+000	-1.87000E-001	-1.19488E-004	10	...........	-327.56
	21167	2116.8	-1.58882E-001	6.37443E-003	0.00000E+000	-1.59000E-001	-1.24888E-004	10	...........	-327.56
	21195	2119.6	-1.30907E-001	7.34932E-003	0.00000E+000	-1.31000E-001	-1.21088E-004	10	...........	-327.56
	21223	2122.4	-1.02935E-001	8.59441E-003	0.00000E+000	-1.03000E-001	-1.19088E-004	10	...........	-327.56
	21251	2125.2	-7.49917E-002	1.03830E-002	0.00000E+000	-7.50000E-002	-1.21688E-004	10	...........	-327.56
	21279	2128	-4.70161E-002	1.21564E-002	0.00000E+000	-4.70000E-002	-1.19088E-004	10	...........	-327.56
	21307	2130.8	-1.90724E-002	1.56566E-002	0.00000E+000	-1.90000E-002	-1.20688E-004	10	...........	-327.56
	21335	2133.6	8.57404E-003	2.46403E-002	0.00000E+000	9.00003E-003	-1.14488E-004	10	...........	-327.56
	21363	2136.4	3.68125E-002	3.93733E-002	0.00000E+000	3.70000E-002	-1.21688E-004	11	...........	-327.56
	21391	2139.2	6.46553E-002	6.25777E-002	0.00000E+000	6.50000E-002	-1.18488E-004	11	...........	-327.56
	21419	2142	9.26956E-002	8.11843E-002	0.00000E+000	9.30000E-002	-1.20688E-004	11	...........	-327.56
	21447	2144.8	1.20580E-001	8.70595E-002	0.00000E+000	1.21000E-001	-1.16288E-004	11	...........	-327.56
	21475	2147.6	1.48625E-001	9.19940E-002	0.00000E+000	1.49000E-001	-1.24488E-004	11	...........	-327.56
	21503	2150.4	1.76554E-001	8.38562E-002	0.00000E+000	1.77000E-001	-1.13888E-004	11	...........	-327.56
	21531	2153.2	2.04611E-001	7.20918E-002	0.00000E+000	2.05000E-001	-1.19088E-004	11	...........	-327.56
	21559	2156	2.32579E-001	6.55128E-002	0.00000E+000	2.33000E-001	-1.19088E-004	11	...........	-327.56
	21587	2158.8	2.60583E-001	5.84091E-002	0.00000E+000	2.61000E-001	-1.15888E-004	11	...........	-327.56
	21615	2161.6	2.88586E-001	5.59285E-002	0.00000E+000	2.89000E-001	-1.16688E-004	11	...........	-327.56
	21643	2164.4	3.16514E-001	5.49752E-002	0.00000E+000	3.17000E-001	-1.16888E-004	11	...........	-327.56
	21671	2167.2	3.44508E-001	5.59090E-002	0.00000E+000	3.45000E-001	-1.23888E-004	11	...........	-327.56
	21699	2170	3.72373E-001	5.67660E-002	0.00000E+000	3.73000E-001	-1.19688E-004	11	...........	-327.56
	21727	2172.8	4.00384E-001	4.94936E-002	0.00000E+000	4.01000E-001	-1.21688E-004	11	...........	-327.56
	21755	2175.6	4.28394E-001	4.68705E-002	0.00000E+000	4.29000E-001	-1.19088E-004	11	...........	-327.56
	21783	2178.4	4.56393E-001	4.34153E-002	0.00000E+000	4.57000E-001	-1.18288E-004	11	...........	-327.56
	21811	2181.2	4.84378E-001	4.10452E-002	0.00000E+000	4.85000E-001	-1.18088E-004	11	...........	-327.56
	21839	2184	5.12353E-001	3.56306E-002	0.00000E+000	5.13000E-001	-1.19088E-004	11	...........	-327.56
	21867	2186.8	5.40363E-001	3.29222E-002	0.00000E+000	5.41000E-001	-1.23688E-004	11	...........	-327.56
	21895	2189.6	5.68359E-001	3.11511E-002	0.00000E+000	5.69000E-001	-1.16488E-004	11	...........	-327.56
	21923	2192.4	5.96355E-001	2.58091E-002	0.00000E+000	5.97000E-001	-1.21888E-004	11	...........	-327.56
	21951	2195.2	6.24068E-001	2.25813E-002	0.00000E+000	6.25000E-001	-1.22088E-004	10	...........	-327.56
	21979	2198	6.52073E-001	2.04912E-002	0.00000E+000	6.53000E-001	-1.22288E-004	10	...........	-327.56
	22007	2200.8	6.79986E-001	1.79017E-002	0.00000E+000	6.81000E-001	-1.23888E-004	10	...........	-327.56
	22035	2203.6	7.08010E-001	1.69170E-002	0.00000E+000	7.09000E-001	-1.16888E-004	10	...........	-327.56
	22063	2206.4	7.35983E-001	1.58013E-002	0.00000E+000	7.37000E-001	-1.13288E-004	10	...........	-327.56
	22091	2209.2	7.63979E-001	1.52560E-002	0.00000E+000	7.65000E-001	-1.16288E-004	10	...........	-327.56
	22119	2212	7.91978E-001	1.50425E-002	0.00000E+000	7.93000E-001	-1.23488E-004	10	...........	-327.56
	22147	2214.8	8.19952E-001	1.45950E-002	0.00000E+000	8.21000E-001	-1.19088E-004	10	...........	-327.56
	22175	2217.6	8.47962E-001	1.47260E-002	0.00000E+000	8.49000E-001	-1.24888E-004	10	...........	-327.56
	22203	2220.4	8.75935E-001	1.46048E-002	0.00000E+000	8.77000E-001	-1.11088E-004	10	...........	-327.56
	22231	2223.2	9.03925E-001	1.50508E-002	0.00000E+000	9.05000E-001	-1.14688E-004	10	...........	-327.56
	22259	2226	9.31862E-001	1.48751E-002	0.00000E+000	9.33000E-001	-1.11088E-004	10	...........	-327.56
	22287	2228.8	9.59841E-001	1.53995E-002	0.00000E+000	9.61000E-001	-1.13888E-004	10	...........	-327.56
	22315	2231.6	9.87729E-001	1.54506E-002	0.00000E+000	9.89000E-001	-1.18488E-004	10	...........	-327.56
	22343	2234.4	1.01579E+000	1.60930E-002	0.00000E+000	1.01700E+000	-1.21488E-004	10	...........	-327.56
	22371	2237.2	1.04370E+000	1.68145E-002	0.00000E+000	1.04500E+000	-1.17088E-004	10	...........	-327.56
	22399	2240	1.07165E+000	1.81062E-002	0.00000E+000	1.07300E+000	-1.24688E-004	10	...........	-327.56
	22427	2242.8	1.09963E+000	1.98258E-002	0.00000E+000	1.10100E+000	-1.18888E-004	10	...........	-327.56
	22455	2245.6	1.12756E+000	2.27761E-002	0.00000E+000	1.12900E+000	-1.16288E-004	10	...........	-327.56
	22483	2248.4	1.15581E+000	2.75241E-002	0.00000E+000	1.15700E+000	-1.19088E-004	11	...........	-327.56
	22511	2251.2	1.18378E+000	3.48281E-002	0.00000E+000	1.18500E+000	-1.24888E-004	11	...........	-327.56
	22539	2254	1.21174E+000	4.40408E-002	0.00000E+000	1.21300E+000	-1.20888E-004	11	...........	-327.56
	22567	2256.8	1.23970E+000	5.56224E-002	0.00000E+000	1.24100E+000	-1.16688E-004	11	...........	-327.56
	22595	2259.6	1.26757E+000	6.97075E-002	0.00000E+000	1.26900E+000	-1.24288E-004	11	...........	-327.56
	22623	2262.4	1.29555E+000	8.60950E-002	0.00000E+000	1.29700E+000	-1.21488E-004	11	...........	-327.56
	22651	2265.2	1.32352E+000	1.05715E-001	0.00000E+000	1.32500E+000	-1.22488E-004	11	...........	-327.56
	22679	2268	1.35143E+000	1.23213E-001	0.00000E+000	1.35300E+000	-1.23688E-004	11	...........	-327.56
	22707	2270.8	1.37938E+000	1.46304E-001	0.00000E+000	1.38100E+000	-1.20088E-004	11	...........	-327.56
	22735	2273.6	1.40732E+000	1.75324E-001	0.00000E+000	1.40900E+000	-1.15688E-004	11	...........	-327.56
	22763	2276.4	1.43523E+000	2.08467E-001	0.00000E+000	1.43700E+000	-1.15688E-004	11	...........	-327.56
	22791	2279.2	1.46318E+000	2.42307E-001	0.00000E+000	1.46500E+000	-1.12088E-004	11	...........	-327.56
	22819	2282	1.49142E+000	2.73917E-001	0.00000E+000	1.49300E+000	-1.19088E-004	12	...........	-327.56
	22847	2284.8	1.51938E+000	3.05063E-001	0.00000E+000	1.52100E+000	-1.15688E-004	12	...........	-327.56
	22875	2287.6	1.54730E+000	3.37134E-001	0.00000E+000	1.54900E+000	-1.13288E-004	12	...........	-327.56
	22903	2290.4	1.57516E+000	3.73446E-001	0.00000E+000	1.57700E+000	-1.25688E-004	12	...........	-327.56
	22931	2293.2	1.60315E+000	4.16894E-001	0.00000E+000	1.60500E+000	-1.18688E-004	12	...........	-327.56
	22959	2296	1.63109E+000	4.84416E-001	0.00000E+000	1.63300E+000	-1.25888E-004	12	...........	-327.56
	22987	2298.8	1.65910E+000	5.14596E-001	0.00000E+000	1.66100E+000	-1.20888E-004	12	...........	-327.56
	23015	2301.6	1.68702E+000	5.58765E-001	0.00000E+000	1.68900E+000	-1.12488E-004	12	...........	-327.56
	23026	2302.7	1.69802E+000	6.03945E-001	0.00000E+000	1.70000E+000	-1.20488E-004	12	...........	-327.56