File: testing/data/240902_01_MCL13_cswWE_CV20_initial_test.DTA
EXPLAIN
TAG	CV
TITLE	LABEL	Cyclic Voltammetry	Test &Identifier
DATE	LABEL	9/2/2024	Date
TIME	LABEL	15:32:11	Time
NOTES	NOTES	5	&Notes...

	WE: Ag wire
	RE: Ni/NiO
	CE: steel swirl
PSTAT	PSTAT	REF3000-48128	Potentiostat
VINIT	POTEN	0.00000E+000	F	Initial &E (V)
VLIMIT1	POTEN	-1.00000E+000	F	Scan Limit &1 (V)
VLIMIT2	POTEN	1.70000E+000	F	Scan Limit &2 (V)
VFINAL	POTEN	1.70000E+000	F	Final &E (V)
SCANRATE	QUANT	2.00000E+001	&Scan Rate (mV/s)
STEPSIZE	QUANT	1.00000E+000	St&ep Size (mV)
CYCLES	IQUANT	3	C&ycles (#)
IMODE	SELECTOR	0	I/E Range &Mode
IRANGE	QUANT	5.00000E+001	&Max Current (mA)
AREA	QUANT	1.00000E+000	Electrode &Area (cm^2)
ELECTRODETYPE	SELECTOR	1	Electrode Type
STRIPPING	TOGGLE	F	Used for Stripping
CONDIT	TWOPARAM	F	1.50000E+001	0.00000E+000	Conditionin&g	Time(s)	E(V)
DELAY	TWOPARAM	F	3.00000E+001	0.00000E+000	Init. De&lay	Time(s)	Stab.(mV/s)
EQDELAY	QUANT	0.00000E+000	Equil. &Time (s)
IRCOMP	SELECTOR	0	IRCom&p
PFCOR	QUANT	5.00000E+001	PF Corr. (ohm)
SAMPLINGMODE	SELECTOR	1	Sampling &Mode
EOC	QUANT	0	Open Circuit (V)
PSTATMODEL	IQUANT	5	Pstat Model
PSTATSECTION	LABEL	REF3000-48128	Pstat Section
PSTATSERIALNO	LABEL	48128	Pstat Serial Number
CTRLMODE	IQUANT	1	Control Mode
ELECTROMETER	IQUANT	0	RE=0 or CS=1
IESTAB	IQUANT	2	I/E Stability
CASPEED	IQUANT	4	Control Amp Speed
CONVENTION	IQUANT	1	Current Convention
ICHRANGE	IQUANT	2	Ich Range
ICHRANGEMODE	TOGGLE	F	Ich Auto Range
ICHOFFSETENABLE	TOGGLE	F	Ich Offset Enable
ICHOFFSET	QUANT	0	Ich Offset (V)
ICHFILTER	IQUANT	2	Ich Filter
VCHRANGE	IQUANT	3	Vch Range
VCHRANGEMODE	TOGGLE	T	Vch Auto Range
VCHOFFSETENABLE	TOGGLE	F	Vch Offset Enable
VCHOFFSET	QUANT	0	Vch Offset (V)
VCHFILTER	IQUANT	1	Vch Filter
ACHRANGE	IQUANT	2	Ach Range
ACHOFFSETENABLE	TOGGLE	F	Ach Offset Enable
ACHOFFSET	QUANT	0	Ach Offset (V)
ACHFILTER	IQUANT	1	Ach Filter
IERANGELOWERLIMIT	IQUANT	2	I/E Range Lower Limit
IERANGEMODE	TOGGLE	T	I/E AutoRange
IERANGE	IQUANT	11	I/E Range
POSFEEDENABLE	TOGGLE	F	Positive Feedback IR Comp
POSFEEDRESISTANCE	QUANT	0	Positive Feedback Resistance (ohm)
ACHSELECT	IQUANT	1	Ach Select
SENSECABLEID	IQUANT	14	Sense Cable ID
PWRCABLEID	IQUANT	7	Power Cable ID
DCCALDATE	LABEL	8/16/2024	DC Calibration Date
ACCALDATE	LABEL	8/16/2024	AC Calibration Date
THERMOSELECT	IQUANT	1	Thermo Select
FRAMEWORKVERSION	LABEL	7.10.3	Framework Version
INSTRUMENTVERSION	LABEL	4.91	Instrument Version
COMMVERSION	LABEL	5.10	Communications Version
CPUPLDVERSION	LABEL	6.00	CPU PLD Version
CTRLPLDVERSION	LABEL	3.21	CTRL PLD Version
PSTATPLDVERSION	LABEL	0.00	PSTAT PLD Version
COMPLIANCEVOLTAGE	IQUANT	0	Compliance Voltage
CURVE1	TABLE
	Pt	T	Vf	Im	Vu	Sig	Ach	IERange	Over	Temp
	#	s	V vs. Ref.	A	V	V	V	#	bits	deg C
	0	0.05	8.29814E-004	5.61071E-004	0.00000E+000	2.98023E-008	-2.70822E-003	11	...........	-327.56
	38	1.95	-3.78508E-002	-2.61486E-004	0.00000E+000	-3.80000E-002	-2.72055E-003	8	...........	-327.56
	76	3.85	-7.58812E-002	-5.77400E-004	0.00000E+000	-7.60000E-002	-2.70855E-003	9	...........	-327.56
	114	5.75	-1.13812E-001	-8.49856E-004	0.00000E+000	-1.14000E-001	-2.69789E-003	9	...........	-327.56
	152	7.65	-1.51750E-001	-1.12810E-003	0.00000E+000	-1.52000E-001	-2.71089E-003	9	...........	-327.56
	190	9.55	-1.89668E-001	-1.44149E-003	0.00000E+000	-1.90000E-001	-2.70422E-003	9	...........	-327.56
	228	11.45	-2.27589E-001	-1.82485E-003	0.00000E+000	-2.28000E-001	-2.70589E-003	9	...........	-327.56
	266	13.35	-2.65477E-001	-2.36061E-003	0.00000E+000	-2.66000E-001	-2.69822E-003	9	...........	-327.56
	304	15.25	-3.03206E-001	-3.53009E-003	0.00000E+000	-3.04000E-001	-2.70055E-003	10	...........	-327.56
	342	17.15	-3.41111E-001	-1.12744E-002	0.00000E+000	-3.42000E-001	-2.69589E-003	10	...........	-327.56
	380	19.05	-3.78883E-001	-2.89043E-002	0.00000E+000	-3.80000E-001	-2.70622E-003	11	...........	-327.56
	418	20.95	-4.16906E-001	-5.69903E-002	0.00000E+000	-4.18000E-001	-2.70989E-003	11	...........	-327.56
	456	22.85	-4.55032E-001	-9.73830E-002	0.00000E+000	-4.56000E-001	-2.69422E-003	11	...........	-327.56
	494	24.75	-4.93052E-001	-1.48923E-001	0.00000E+000	-4.94000E-001	-2.68955E-003	11	...........	-327.56
	532	26.65	-5.30876E-001	-2.10972E-001	0.00000E+000	-5.32000E-001	-2.68622E-003	11	...........	-327.56
	570	28.55	-5.69052E-001	-2.84054E-001	0.00000E+000	-5.70000E-001	-2.69622E-003	12	...........	-327.56
	608	30.45	-6.06930E-001	-3.71806E-001	0.00000E+000	-6.08000E-001	-2.68989E-003	12	...........	-327.56
	646	32.35	-6.44870E-001	-4.69225E-001	0.00000E+000	-6.46000E-001	-2.69655E-003	12	...........	-327.56
	684	34.25	-6.82745E-001	-5.67416E-001	0.00000E+000	-6.84000E-001	-2.69822E-003	12	...........	-327.56
	722	36.15	-7.20634E-001	-6.73118E-001	0.00000E+000	-7.22000E-001	-2.68855E-003	12	...........	-327.56
	760	38.05	-7.58532E-001	-7.65726E-001	0.00000E+000	-7.60000E-001	-2.70122E-003	12	...........	-327.56
	798	39.95	-7.96473E-001	-8.17492E-001	0.00000E+000	-7.98000E-001	-2.69955E-003	12	...........	-327.56
	836	41.85	-8.34368E-001	-8.55392E-001	0.00000E+000	-8.36000E-001	-2.69322E-003	12	...........	-327.56
	874	43.75	-8.72344E-001	-9.12920E-001	0.00000E+000	-8.74000E-001	-2.68422E-003	12	...........	-327.56
	912	45.65	-9.10238E-001	-9.81645E-001	0.00000E+000	-9.12000E-001	-2.69189E-003	12	...........	-327.56
	950	47.55	-9.48172E-001	-1.05685E+000	0.00000E+000	-9.50000E-001	-2.70355E-003	12	...........	-327.56
	988	49.45	-9.86043E-001	-1.14131E+000	0.00000E+000	-9.88000E-001	-2.68955E-003	12	...........	-327.56
	1026	51.35	-9.72105E-001	-1.09661E+000	0.00000E+000	-9.74000E-001	-2.69289E-003	12	...........	-327.56
	1064	53.25	-9.34258E-001	-9.93435E-001	0.00000E+000	-9.36000E-001	-2.68722E-003	12	...........	-327.56
	1102	55.15	-8.96342E-001	-8.92473E-001	0.00000E+000	-8.98000E-001	-2.69189E-003	12	...........	-327.56
	1140	57.05	-8.58422E-001	-7.92300E-001	0.00000E+000	-8.60000E-001	-2.69455E-003	12	...........	-327.56
	1178	58.95	-8.20512E-001	-6.97379E-001	0.00000E+000	-8.22000E-001	-2.68955E-003	12	...........	-327.56
	1216	60.85	-7.82631E-001	-6.05506E-001	0.00000E+000	-7.84000E-001	-2.68555E-003	12	...........	-327.56
	1254	62.75	-7.44754E-001	-5.17152E-001	0.00000E+000	-7.46000E-001	-2.69522E-003	12	...........	-327.56
	1292	64.65	-7.06818E-001	-4.30754E-001	0.00000E+000	-7.08000E-001	-2.69755E-003	12	...........	-327.56
	1330	66.55	-6.68930E-001	-3.47741E-001	0.00000E+000	-6.70000E-001	-2.68255E-003	12	...........	-327.56
	1368	68.45	-6.30967E-001	-2.67126E-001	0.00000E+000	-6.32000E-001	-2.69489E-003	12	...........	-327.56
	1406	70.35	-5.92883E-001	-1.88379E-001	0.00000E+000	-5.94000E-001	-2.68855E-003	11	...........	-327.56
	1444	72.25	-5.54960E-001	-1.14175E-001	0.00000E+000	-5.56000E-001	-2.67422E-003	11	...........	-327.56
	1482	74.15	-5.16811E-001	-4.45656E-002	0.00000E+000	-5.18000E-001	-2.69189E-003	11	...........	-327.56
	1520	76.05	-4.79392E-001	1.90816E-002	0.00000E+000	-4.80000E-001	-2.68122E-003	10	...........	-327.56
	1558	77.95	-4.41326E-001	8.31029E-002	0.00000E+000	-4.42000E-001	-2.68589E-003	11	...........	-327.56
	1596	79.85	-4.03591E-001	1.65942E-001	0.00000E+000	-4.04000E-001	-2.69522E-003	11	...........	-327.56
	1634	81.75	-3.65842E-001	2.67426E-001	0.00000E+000	-3.66000E-001	-2.67855E-003	11	...........	-327.56
	1672	83.65	-3.27606E-001	3.86824E-001	0.00000E+000	-3.28000E-001	-2.69722E-003	12	...........	-327.56
	1710	85.55	-2.89819E-001	5.10603E-001	0.00000E+000	-2.90000E-001	-2.68622E-003	12	...........	-327.56
	1748	87.45	-2.51914E-001	6.28139E-001	0.00000E+000	-2.52000E-001	-2.69555E-003	12	...........	-327.56
	1786	89.35	-2.13989E-001	7.36200E-001	0.00000E+000	-2.14000E-001	-2.67389E-003	12	...........	-327.56
	1824	91.25	-1.76082E-001	8.08258E-001	0.00000E+000	-1.76000E-001	-2.68289E-003	12	...........	-327.56
	1862	93.15	-1.37941E-001	5.71883E-001	0.00000E+000	-1.38000E-001	-2.68889E-003	12	...........	-327.56
	1900	95.05	-9.97437E-002	2.84107E-001	0.00000E+000	-1.00000E-001	-2.68855E-003	12	...........	-327.56
	1938	96.95	-6.17779E-002	2.68151E-001	0.00000E+000	-6.20000E-002	-2.68222E-003	12	...........	-327.56
	1976	98.85	-2.38157E-002	2.62799E-001	0.00000E+000	-2.40000E-002	-2.69689E-003	12	...........	-327.56
	2014	100.75	1.41790E-002	2.63966E-001	0.00000E+000	1.40000E-002	-2.68822E-003	12	...........	-327.56
	2052	102.65	5.21254E-002	2.48827E-001	0.00000E+000	5.20000E-002	-2.68122E-003	12	...........	-327.56
	2090	104.55	9.00766E-002	2.61825E-001	0.00000E+000	9.00000E-002	-2.68755E-003	12	...........	-327.56
	2128	106.45	1.28023E-001	3.01244E-001	0.00000E+000	1.28000E-001	-2.68389E-003	12	...........	-327.56
	2166	108.35	1.65920E-001	3.59475E-001	0.00000E+000	1.66000E-001	-2.68389E-003	12	...........	-327.56
	2204	110.25	2.03814E-001	4.42423E-001	0.00000E+000	2.04000E-001	-2.67822E-003	12	...........	-327.56
	2242	112.15	2.41697E-001	5.40960E-001	0.00000E+000	2.42000E-001	-2.67822E-003	12	...........	-327.56
	2280	114.05	2.79471E-001	6.35386E-001	0.00000E+000	2.80000E-001	-2.69055E-003	12	...........	-327.56
	2318	115.95	3.17367E-001	7.29518E-001	0.00000E+000	3.18000E-001	-2.69089E-003	12	...........	-327.56
	2356	117.85	3.55253E-001	8.12565E-001	0.00000E+000	3.56000E-001	-2.68422E-003	12	...........	-327.56
	2394	119.75	3.93194E-001	8.91545E-001	0.00000E+000	3.94000E-001	-2.68089E-003	12	...........	-327.56
	2432	121.65	4.31098E-001	9.61259E-001	0.00000E+000	4.32000E-001	-2.68722E-003	12	...........	-327.56
	2470	123.55	4.69079E-001	1.01632E+000	0.00000E+000	4.70000E-001	-2.69255E-003	12	...........	-327.56
	2508	125.45	5.06986E-001	1.05551E+000	0.00000E+000	5.08000E-001	-2.67722E-003	12	...........	-327.56
	2546	127.35	5.44933E-001	1.08116E+000	0.00000E+000	5.46000E-001	-2.67655E-003	12	...........	-327.56
	2584	129.25	5.82880E-001	1.06882E+000	0.00000E+000	5.84000E-001	-2.68889E-003	12	...........	-327.56
	2622	131.15	6.20930E-001	1.02439E+000	0.00000E+000	6.22000E-001	-2.68055E-003	12	...........	-327.56
	2660	133.05	6.58899E-001	1.01008E+000	0.00000E+000	6.60000E-001	-2.68855E-003	12	...........	-327.56
	2698	134.95	6.96919E-001	9.68767E-001	0.00000E+000	6.98000E-001	-2.68022E-003	12	...........	-327.56
	2736	136.85	7.34842E-001	9.34815E-001	0.00000E+000	7.36000E-001	-2.67855E-003	12	...........	-327.56
	2774	138.75	7.72889E-001	8.93786E-001	0.00000E+000	7.74000E-001	-2.68055E-003	12	...........	-327.56
	2812	140.65	8.10887E-001	8.31698E-001	0.00000E+000	8.12000E-001	-2.68355E-003	12	...........	-327.56
	2850	142.55	8.48927E-001	7.55005E-001	0.00000E+000	8.50000E-001	-2.68355E-003	12	...........	-327.56
	2888	144.45	8.86945E-001	6.42570E-001	0.00000E+000	8.88000E-001	-2.68922E-003	12	...........	-327.56
	2926	146.35	9.25090E-001	4.70720E-001	0.00000E+000	9.26000E-001	-2.67655E-003	12	...........	-327.56
	2964	148.25	9.63108E-001	2.84190E-001	0.00000E+000	9.64000E-001	-2.67689E-003	12	...........	-327.56
	3002	150.15	1.00098E+000	2.14372E-001	0.00000E+000	1.00200E+000	-2.67855E-003	11	...........	-327.56
	3040	152.05	1.03900E+000	1.75805E-001	0.00000E+000	1.04000E+000	-2.68122E-003	11	...........	-327.56
	3078	153.95	1.07702E+000	1.55945E-001	0.00000E+000	1.07800E+000	-2.67922E-003	11	...........	-327.56
	3116	155.85	1.11497E+000	1.49594E-001	0.00000E+000	1.11600E+000	-2.67089E-003	11	...........	-327.56
	3154	157.75	1.15294E+000	1.59344E-001	0.00000E+000	1.15400E+000	-2.68522E-003	11	...........	-327.56
	3192	159.65	1.19082E+000	1.85164E-001	0.00000E+000	1.19200E+000	-2.67922E-003	11	...........	-327.56
	3230	161.55	1.22875E+000	2.26939E-001	0.00000E+000	1.23000E+000	-2.68355E-003	11	...........	-327.56
	3268	163.45	1.26700E+000	2.80116E-001	0.00000E+000	1.26800E+000	-2.67289E-003	12	...........	-327.56
	3306	165.35	1.30489E+000	3.40349E-001	0.00000E+000	1.30600E+000	-2.68855E-003	12	...........	-327.56
	3344	167.25	1.34282E+000	4.05836E-001	0.00000E+000	1.34400E+000	-2.68689E-003	12	...........	-327.56
	3382	169.15	1.38067E+000	4.75933E-001	0.00000E+000	1.38200E+000	-2.67422E-003	12	...........	-327.56
	3420	171.05	1.41865E+000	5.48101E-001	0.00000E+000	1.42000E+000	-2.67922E-003	12	...........	-327.56
	3458	172.95	1.45653E+000	6.22885E-001	0.00000E+000	1.45800E+000	-2.68489E-003	12	...........	-327.56
	3496	174.85	1.49446E+000	6.99783E-001	0.00000E+000	1.49600E+000	-2.67555E-003	12	...........	-327.56
	3534	176.75	1.53235E+000	7.77436E-001	0.00000E+000	1.53400E+000	-2.67355E-003	12	...........	-327.56
	3572	178.65	1.57027E+000	8.53262E-001	0.00000E+000	1.57200E+000	-2.68355E-003	12	...........	-327.56
	3610	180.55	1.60812E+000	9.33576E-001	0.00000E+000	1.61000E+000	-2.67389E-003	12	...........	-327.56
	3648	182.45	1.64606E+000	1.01437E+000	0.00000E+000	1.64800E+000	-2.67555E-003	12	...........	-327.56
	3686	184.35	1.68393E+000	1.09783E+000	0.00000E+000	1.68600E+000	-2.66855E-003	12	...........	-327.56
	3700	185.05	1.69796E+000	1.12675E+000	0.00000E+000	1.70000E+000	-2.67522E-003	12	...........	-327.56
CURVE2	TABLE
	Pt	T	Vf	Im	Vu	Sig	Ach	IERange	Over	Temp
	#	s	V vs. Ref.	A	V	V	V	#	bits	deg C
	3701	185.1	1.69695E+000	1.12295E+000	0.00000E+000	1.69900E+000	-2.66922E-003	12	...........	-327.56
	3757	187.9	1.64105E+000	1.00620E+000	0.00000E+000	1.64300E+000	-2.67222E-003	12	...........	-327.56
	3813	190.7	1.58519E+000	8.83107E-001	0.00000E+000	1.58700E+000	-2.67555E-003	12	...........	-327.56
	3869	193.5	1.52934E+000	7.63096E-001	0.00000E+000	1.53100E+000	-2.67622E-003	12	...........	-327.56
	3925	196.3	1.47344E+000	6.47646E-001	0.00000E+000	1.47500E+000	-2.66822E-003	12	...........	-327.56
	3981	199.1	1.41763E+000	5.33422E-001	0.00000E+000	1.41900E+000	-2.67155E-003	12	...........	-327.56
	4037	201.9	1.36177E+000	4.23170E-001	0.00000E+000	1.36300E+000	-2.67722E-003	12	...........	-327.56
	4093	204.7	1.30593E+000	3.18874E-001	0.00000E+000	1.30700E+000	-2.69022E-003	12	...........	-327.56
	4149	207.5	1.24974E+000	2.24975E-001	0.00000E+000	1.25100E+000	-2.67355E-003	11	...........	-327.56
	4205	210.3	1.19385E+000	1.48475E-001	0.00000E+000	1.19500E+000	-2.67155E-003	11	...........	-327.56
	4261	213.1	1.13816E+000	9.37348E-002	0.00000E+000	1.13900E+000	-2.66755E-003	11	...........	-327.56
	4317	215.9	1.08242E+000	6.46086E-002	0.00000E+000	1.08300E+000	-2.67155E-003	11	...........	-327.56
	4373	218.7	1.02653E+000	5.38075E-002	0.00000E+000	1.02700E+000	-2.67522E-003	11	...........	-327.56
	4429	221.5	9.70581E-001	5.10492E-002	0.00000E+000	9.71000E-001	-2.68989E-003	11	...........	-327.56
	4485	224.3	9.14644E-001	4.96722E-002	0.00000E+000	9.15000E-001	-2.67722E-003	11	...........	-327.56
	4541	227.1	8.58632E-001	4.70725E-002	0.00000E+000	8.59000E-001	-2.66689E-003	11	...........	-327.56
	4597	229.9	8.02826E-001	4.18269E-002	0.00000E+000	8.03000E-001	-2.66922E-003	11	...........	-327.56
	4653	232.7	7.46877E-001	3.37223E-002	0.00000E+000	7.47000E-001	-2.66522E-003	11	...........	-327.56
	4709	235.5	6.90452E-001	2.23486E-002	0.00000E+000	6.91000E-001	-2.68855E-003	10	...........	-327.56
	4765	238.3	6.34670E-001	7.62889E-003	0.00000E+000	6.35000E-001	-2.67755E-003	10	...........	-327.56
	4821	241.1	5.78939E-001	-1.06021E-002	0.00000E+000	5.79000E-001	-2.67955E-003	10	...........	-327.56
	4877	243.9	5.23200E-001	-2.99010E-002	0.00000E+000	5.23000E-001	-2.68789E-003	11	...........	-327.56
	4933	246.7	4.67273E-001	-4.19164E-002	0.00000E+000	4.67000E-001	-2.68355E-003	11	...........	-327.56
	4989	249.5	4.11281E-001	-3.70963E-002	0.00000E+000	4.11000E-001	-2.68122E-003	11	...........	-327.56
	5045	252.3	3.55237E-001	-1.99475E-002	0.00000E+000	3.55000E-001	-2.68355E-003	10	...........	-327.56
	5101	255.1	2.99257E-001	-1.55021E-002	0.00000E+000	2.99000E-001	-2.68155E-003	10	...........	-327.56
	5157	257.9	2.43314E-001	-1.40701E-002	0.00000E+000	2.43000E-001	-2.67589E-003	10	...........	-327.56
	5213	260.7	1.87512E-001	-1.75376E-002	0.00000E+000	1.87000E-001	-2.67589E-003	10	...........	-327.56
	5269	263.5	1.31634E-001	-2.25714E-002	0.00000E+000	1.31000E-001	-2.67122E-003	10	...........	-327.56
	5325	266.3	7.57325E-002	-2.56985E-002	0.00000E+000	7.50000E-002	-2.67889E-003	10	...........	-327.56
	5381	269.1	1.97846E-002	-2.78639E-002	0.00000E+000	1.90000E-002	-2.67855E-003	11	...........	-327.56
	5437	271.9	-3.61757E-002	-2.98711E-002	0.00000E+000	-3.70000E-002	-2.68889E-003	11	...........	-327.56
	5493	274.7	-9.21086E-002	-3.29380E-002	0.00000E+000	-9.30000E-002	-2.67555E-003	11	...........	-327.56
	5549	277.5	-1.48045E-001	-3.57861E-002	0.00000E+000	-1.49000E-001	-2.66955E-003	11	...........	-327.56
	5605	280.3	-2.03981E-001	-3.85578E-002	0.00000E+000	-2.05000E-001	-2.68155E-003	11	...........	-327.56
	5661	283.1	-2.59931E-001	-4.50912E-002	0.00000E+000	-2.61000E-001	-2.67722E-003	11	...........	-327.56
	5717	285.9	-3.15985E-001	-5.68008E-002	0.00000E+000	-3.17000E-001	-2.67855E-003	11	...........	-327.56
	5773	288.7	-3.71976E-001	-7.56428E-002	0.00000E+000	-3.73000E-001	-2.67822E-003	11	...........	-327.56
	5829	291.5	-4.28029E-001	-1.04940E-001	0.00000E+000	-4.29000E-001	-2.67689E-003	11	...........	-327.56
	5885	294.3	-4.83989E-001	-1.55170E-001	0.00000E+000	-4.85000E-001	-2.67655E-003	11	...........	-327.56
	5941	297.1	-5.39820E-001	-2.41751E-001	0.00000E+000	-5.41000E-001	-2.68022E-003	11	...........	-327.56
	5997	299.9	-5.95968E-001	-3.51701E-001	0.00000E+000	-5.97000E-001	-2.67789E-003	12	...........	-327.56
	6053	302.7	-6.51875E-001	-4.75560E-001	0.00000E+000	-6.53000E-001	-2.67889E-003	12	...........	-327.56
[...]
	9997	499.9	8.02708E-001	5.84057E-002	0.00000E+000	8.03000E-001	-2.68722E-003	11	...........	-327.56
	10053	502.7	7.46752E-001	5.66366E-002	0.00000E+000	7.47000E-001	-2.67322E-003	11	...........	-327.56
	10109	505.5	6.90787E-001	5.54669E-002	0.00000E+000	6.91000E-001	-2.67922E-003	11	...........	-327.56
	10165	508.3	6.34825E-001	5.44860E-002	0.00000E+000	6.35000E-001	-2.67555E-003	11	...........	-327.56
	10221	511.1	5.78857E-001	5.24870E-002	0.00000E+000	5.79000E-001	-2.66822E-003	11	...........	-327.56
	10277	513.9	5.22990E-001	4.90655E-002	0.00000E+000	5.23000E-001	-2.67589E-003	11	...........	-327.56
	10333	516.7	4.67088E-001	4.39058E-002	0.00000E+000	4.67000E-001	-2.67789E-003	11	...........	-327.56
	10389	519.5	4.11134E-001	3.61289E-002	0.00000E+000	4.11000E-001	-2.67189E-003	11	...........	-327.56
	10445	522.3	3.55179E-001	2.56912E-002	0.00000E+000	3.55000E-001	-2.68855E-003	11	...........	-327.56
	10501	525.1	2.98825E-001	1.48274E-002	0.00000E+000	2.99000E-001	-2.67689E-003	10	...........	-327.56
	10557	527.9	2.42975E-001	1.15421E-002	0.00000E+000	2.43000E-001	-2.67689E-003	10	...........	-327.56
	10613	530.7	1.87207E-001	6.20400E-003	0.00000E+000	1.87000E-001	-2.67255E-003	10	...........	-327.56
	10669	533.5	1.31406E-001	-3.17653E-003	0.00000E+000	1.31000E-001	-2.67322E-003	10	...........	-327.56
	10725	536.3	7.55449E-002	-9.09908E-003	0.00000E+000	7.50000E-002	-2.68455E-003	10	...........	-327.56
	10781	539.1	1.96655E-002	-1.26256E-002	0.00000E+000	1.90000E-002	-2.67422E-003	10	...........	-327.56
	10837	541.9	-3.62550E-002	-1.53471E-002	0.00000E+000	-3.70000E-002	-2.67655E-003	10	...........	-327.56
	10893	544.7	-9.20971E-002	-2.20460E-002	0.00000E+000	-9.30000E-002	-2.67155E-003	10	...........	-327.56
	10949	547.5	-1.48002E-001	-2.51548E-002	0.00000E+000	-1.49000E-001	-2.67222E-003	10	...........	-327.56
	11005	550.3	-2.03964E-001	-2.97004E-002	0.00000E+000	-2.05000E-001	-2.68089E-003	11	...........	-327.56
	11061	553.1	-2.59893E-001	-3.88784E-002	0.00000E+000	-2.61000E-001	-2.67522E-003	11	...........	-327.56
	11117	555.9	-3.15964E-001	-5.67388E-002	0.00000E+000	-3.17000E-001	-2.67289E-003	11	...........	-327.56
	11173	558.7	-3.72009E-001	-9.39818E-002	0.00000E+000	-3.73000E-001	-2.69289E-003	11	...........	-327.56
	11229	561.5	-4.27998E-001	-1.58378E-001	0.00000E+000	-4.29000E-001	-2.68155E-003	11	...........	-327.56
	11285	564.3	-4.83849E-001	-2.48095E-001	0.00000E+000	-4.85000E-001	-2.68422E-003	11	...........	-327.56
	11341	567.1	-5.39996E-001	-3.44895E-001	0.00000E+000	-5.41000E-001	-2.66689E-003	12	...........	-327.56
	11397	569.9	-5.95897E-001	-4.35078E-001	0.00000E+000	-5.97000E-001	-2.66789E-003	12	...........	-327.56
	11453	572.7	-6.51838E-001	-5.20291E-001	0.00000E+000	-6.53000E-001	-2.67555E-003	12	...........	-327.56
	11509	575.5	-7.07651E-001	-6.19822E-001	0.00000E+000	-7.09000E-001	-2.68255E-003	12	...........	-327.56
	11565	578.3	-7.63555E-001	-6.76834E-001	0.00000E+000	-7.65000E-001	-2.67889E-003	12	...........	-327.56
	11621	581.1	-8.19482E-001	-6.92808E-001	0.00000E+000	-8.21000E-001	-2.68122E-003	12	...........	-327.56
	11677	583.9	-8.75401E-001	-7.69572E-001	0.00000E+000	-8.77000E-001	-2.67155E-003	12	...........	-327.56
	11733	586.7	-9.31318E-001	-8.95114E-001	0.00000E+000	-9.33000E-001	-2.66389E-003	12	...........	-327.56
	11789	589.5	-9.87075E-001	-1.03907E+000	0.00000E+000	-9.89000E-001	-2.69022E-003	12	...........	-327.56
	11845	592.3	-9.53216E-001	-9.34370E-001	0.00000E+000	-9.55000E-001	-2.67822E-003	12	...........	-327.56
	11901	595.1	-8.97391E-001	-7.78973E-001	0.00000E+000	-8.99000E-001	-2.67689E-003	12	...........	-327.56
	11957	597.9	-8.41511E-001	-6.23742E-001	0.00000E+000	-8.43000E-001	-2.67322E-003	12	...........	-327.56
	12013	600.7	-7.85677E-001	-4.76517E-001	0.00000E+000	-7.87000E-001	-2.68689E-003	12	...........	-327.56
	12069	603.5	-7.29772E-001	-3.39111E-001	0.00000E+000	-7.31000E-001	-2.67622E-003	12	...........	-327.56
	12125	606.3	-6.73808E-001	-2.04663E-001	0.00000E+000	-6.75000E-001	-2.68289E-003	11	...........	-327.56
	12181	609.1	-6.17833E-001	-7.54138E-002	0.00000E+000	-6.19000E-001	-2.68422E-003	11	...........	-327.56
	12237	611.9	-5.61835E-001	3.68194E-002	0.00000E+000	-5.63000E-001	-2.68522E-003	11	...........	-327.56
	12293	614.7	-5.06364E-001	1.14886E-001	0.00000E+000	-5.07000E-001	-2.67689E-003	11	...........	-327.56
	12349	617.5	-4.50603E-001	1.91362E-001	0.00000E+000	-4.51000E-001	-2.67722E-003	11	...........	-327.56
	12405	620.3	-3.94546E-001	2.79977E-001	0.00000E+000	-3.95000E-001	-2.68389E-003	12	...........	-327.56
	12461	623.1	-3.38637E-001	3.72784E-001	0.00000E+000	-3.39000E-001	-2.67922E-003	12	...........	-327.56
	12517	625.9	-2.82753E-001	4.13007E-001	0.00000E+000	-2.83000E-001	-2.67855E-003	12	...........	-327.56
	12573	628.7	-2.26743E-001	4.28339E-001	0.00000E+000	-2.27000E-001	-2.67522E-003	12	...........	-327.56
	12629	631.5	-1.70719E-001	3.47401E-001	0.00000E+000	-1.71000E-001	-2.67955E-003	12	...........	-327.56
	12685	634.3	-1.14932E-001	2.22006E-001	0.00000E+000	-1.15000E-001	-2.68122E-003	11	...........	-327.56
	12741	637.1	-5.89633E-002	2.05468E-001	0.00000E+000	-5.90000E-002	-2.67955E-003	11	...........	-327.56
	12797	639.9	-3.01702E-003	2.09132E-001	0.00000E+000	-2.99996E-003	-2.68622E-003	11	...........	-327.56
	12853	642.7	5.29034E-002	2.04844E-001	0.00000E+000	5.30000E-002	-2.68889E-003	11	...........	-327.56
	12909	645.5	1.08809E-001	2.25740E-001	0.00000E+000	1.09000E-001	-2.68455E-003	11	...........	-327.56
	12965	648.3	1.64784E-001	2.03481E-001	0.00000E+000	1.65000E-001	-2.68222E-003	11	...........	-327.56
	13021	651.1	2.20679E-001	2.28820E-001	0.00000E+000	2.21000E-001	-2.67089E-003	11	...........	-327.56
	13077	653.9	2.76710E-001	2.63629E-001	0.00000E+000	2.77000E-001	-2.68789E-003	12	...........	-327.56
	13133	656.7	3.32635E-001	2.90104E-001	0.00000E+000	3.33000E-001	-2.68022E-003	12	...........	-327.56
	13189	659.5	3.88586E-001	3.33787E-001	0.00000E+000	3.89000E-001	-2.67755E-003	12	...........	-327.56
	13245	662.3	4.44514E-001	4.04548E-001	0.00000E+000	4.45000E-001	-2.69189E-003	12	...........	-327.56
	13301	665.1	5.00321E-001	4.75907E-001	0.00000E+000	5.01000E-001	-2.67822E-003	12	...........	-327.56
	13357	667.9	5.56290E-001	4.70380E-001	0.00000E+000	5.57000E-001	-2.67589E-003	12	...........	-327.56
	13413	670.7	6.12391E-001	3.23127E-001	0.00000E+000	6.13000E-001	-2.67555E-003	12	...........	-327.56
	13469	673.5	6.68377E-001	2.98586E-001	0.00000E+000	6.69000E-001	-2.68189E-003	12	...........	-327.56
	13525	676.3	7.24357E-001	2.55953E-001	0.00000E+000	7.25000E-001	-2.67955E-003	12	...........	-327.56
	13581	679.1	7.80123E-001	2.10676E-001	0.00000E+000	7.81000E-001	-2.67422E-003	11	...........	-327.56
	13637	681.9	8.36070E-001	1.74340E-001	0.00000E+000	8.37000E-001	-2.67722E-003	11	...........	-327.56
	13693	684.7	8.92081E-001	1.54886E-001	0.00000E+000	8.93000E-001	-2.67989E-003	11	...........	-327.56
	13749	687.5	9.48047E-001	1.46214E-001	0.00000E+000	9.49000E-001	-2.67655E-003	11	...........	-327.56
	13805	690.3	1.00405E+000	1.38990E-001	0.00000E+000	1.00500E+000	-2.67889E-003	11	...........	-327.56
	13861	693.1	1.06002E+000	1.34735E-001	0.00000E+000	1.06100E+000	-2.68355E-003	11	...........	-327.56
	13917	695.9	1.11591E+000	1.37999E-001	0.00000E+000	1.11700E+000	-2.67122E-003	11	...........	-327.56
	13973	698.7	1.17181E+000	1.52892E-001	0.00000E+000	1.17300E+000	-2.67655E-003	11	...........	-327.56
	14029	701.5	1.22774E+000	1.70450E-001	0.00000E+000	1.22900E+000	-2.67455E-003	11	...........	-327.56
	14085	704.3	1.28368E+000	1.89312E-001	0.00000E+000	1.28500E+000	-2.68722E-003	11	...........	-327.56
	14141	707.1	1.33955E+000	2.20296E-001	0.00000E+000	1.34100E+000	-2.66755E-003	11	...........	-327.56
	14197	709.9	1.39567E+000	2.70613E-001	0.00000E+000	1.39700E+000	-2.68155E-003	12	...........	-327.56
	14253	712.7	1.45158E+000	3.60795E-001	0.00000E+000	1.45300E+000	-2.67555E-003	12	...........	-327.56
	14309	715.5	1.50746E+000	4.73835E-001	0.00000E+000	1.50900E+000	-2.67855E-003	12	...........	-327.56
	14365	718.3	1.56329E+000	5.96661E-001	0.00000E+000	1.56500E+000	-2.67655E-003	12	...........	-327.56
	14421	721.1	1.61915E+000	7.30762E-001	0.00000E+000	1.62100E+000	-2.67689E-003	12	...........	-327.56
	14477	723.9	1.67503E+000	8.53957E-001	0.00000E+000	1.67700E+000	-2.67755E-003	12	...........	-327.56
	14500	725.05	1.69796E+000	9.06487E-001	0.00000E+000	1.70000E+000	-2.68289E-003	12	...........	-327.56
CURVE4	TABLE
	Pt	T	Vf	Im	Vu	Sig	Ach	IERange	Over	Temp
	#	s	V vs. Ref.	A	V	V	V	#	bits	deg C
	14501	725.1	1.69795E+000	9.05316E-001	0.00000E+000	1.70000E+000	-2.67789E-003	12	...........	-327.56