File: testing/data/240902_14_MCL13_cswWE_CV1_750C_CO2.DTA
EXPLAIN
TAG	CV
TITLE	LABEL	Cyclic Voltammetry	Test Identifier
DATE	LABEL	9/3/2024	Date
TIME	LABEL	11:28:09	Time
NOTES	NOTES	5	Notes...
	cswWE - carbon steel wire
cspWE - carbon steel plate 2x2 tapered

Carbon steel plate counter electrode
Carbon steel wire reference electrode
PSTAT	PSTAT	REF3000-48128	Potentiostat
VINIT	POTEN	0.00000E+000	T	Initial E (V)
VLIMIT1	POTEN	1.70000E+000	F	Scan Limit 1 (V)
VLIMIT2	POTEN	-8.00000E-001	F	Scan Limit 2 (V)
VFINAL	POTEN	1.70000E+000	F	Final E (V)
SCANRATE	QUANT	9.99998E-001	Scan Rate (mV/s)
STEPSIZE	QUANT	1.00000E+000	Step Size (mV)
CYCLES	IQUANT	2	Cycles (#)
IMODE	SELECTOR	0	I/E Range Mode
IRANGE	QUANT	3.00000E-001	Max Current (mA)
AREA	QUANT	1.00000E+000	Sample Area (cm^2)
EQDELAY	QUANT	0.00000E+000	Equil. Time (s)
IRCOMP	SELECTOR	0	IRComp
PFCOR	QUANT	5.00000E+001	PF Corr. (ohm)
SAMPLINGMODE	SELECTOR	1	Sampling Mode
EOC	QUANT	0.3625399	Open Circuit (V)
ELECTRODETYPE	SELECTOR	0	Electrode Type
STRIPPING	TOGGLE	F	Used for Stripping
SEQUENCER	TOGGLE	TRUE	Run as Sequence
PSTATMODEL	IQUANT	5	Pstat Model
PSTATSECTION	LABEL	REF3000-48128	Pstat Section
PSTATSERIALNO	LABEL	48128	Pstat Serial Number
CTRLMODE	IQUANT	1	Control Mode
ELECTROMETER	IQUANT	0	RE=0 or CS=1
IESTAB	IQUANT	2	I/E Stability
CASPEED	IQUANT	4	Control Amp Speed
CONVENTION	IQUANT	1	Current Convention
ICHRANGE	IQUANT	2	Ich Range
ICHRANGEMODE	TOGGLE	F	Ich Auto Range
ICHOFFSETENABLE	TOGGLE	F	Ich Offset Enable
ICHOFFSET	QUANT	0	Ich Offset (V)
ICHFILTER	IQUANT	3	Ich Filter
VCHRANGE	IQUANT	2	Vch Range
VCHRANGEMODE	TOGGLE	F	Vch Auto Range
VCHOFFSETENABLE	TOGGLE	F	Vch Offset Enable
VCHOFFSET	QUANT	0	Vch Offset (V)
VCHFILTER	IQUANT	3	Vch Filter
ACHRANGE	IQUANT	2	Ach Range
ACHOFFSETENABLE	TOGGLE	F	Ach Offset Enable
ACHOFFSET	QUANT	0	Ach Offset (V)
ACHFILTER	IQUANT	1	Ach Filter
IERANGELOWERLIMIT	IQUANT	2	I/E Range Lower Limit
IERANGEMODE	TOGGLE	T	I/E AutoRange
IERANGE	IQUANT	9	I/E Range
POSFEEDENABLE	TOGGLE	F	Positive Feedback IR Comp
POSFEEDRESISTANCE	QUANT	0	Positive Feedback Resistance (ohm)
ACHSELECT	IQUANT	4	Ach Select
SENSECABLEID	IQUANT	14	Sense Cable ID
PWRCABLEID	IQUANT	7	Power Cable ID
DCCALDATE	LABEL	8/16/2024	DC Calibration Date
ACCALDATE	LABEL	8/16/2024	AC Calibration Date
THERMOSELECT	IQUANT	1	Thermo Select
FRAMEWORKVERSION	LABEL	7.10.3	Framework Version
INSTRUMENTVERSION	LABEL	4.91	Instrument Version
COMMVERSION	LABEL	5.10	Communications Version
CPUPLDVERSION	LABEL	6.00	CPU PLD Version
CTRLPLDVERSION	LABEL	3.21	CTRL PLD Version
PSTATPLDVERSION	LABEL	0.00	PSTAT PLD Version
COMPLIANCEVOLTAGE	IQUANT	0	Compliance Voltage
CURVE1	TABLE
	Pt	T	Vf	Im	Vu	Sig	Ach	IERange	Over	Temp
	#	s	V vs. Ref.	A	V	V	V	#	bits	deg C
	0	1	3.62002E-001	1.00798E-003	0.00000E+000	3.62550E-001	-9.68381E-005	9	...........	-327.56
	39	40	4.01002E-001	4.63439E-003	0.00000E+000	4.01550E-001	-1.11971E-004	10	...........	-327.56
	78	79	4.40025E-001	5.84933E-003	0.00000E+000	4.40550E-001	-1.10321E-004	10	...........	-327.56
	117	118	4.78930E-001	6.17626E-003	0.00000E+000	4.79550E-001	-1.10688E-004	10	...........	-327.56
	156	157	5.17905E-001	6.59661E-003	0.00000E+000	5.18550E-001	-1.08188E-004	10	...........	-327.56
	195	196	5.56817E-001	6.82568E-003	0.00000E+000	5.57550E-001	-1.10555E-004	10	...........	-327.56
	234	235	5.95871E-001	7.05503E-003	0.00000E+000	5.96550E-001	-1.06855E-004	10	...........	-327.56
	273	274	6.34762E-001	6.96893E-003	0.00000E+000	6.35550E-001	-1.13388E-004	10	...........	-327.56
	312	313	6.73802E-001	6.88701E-003	0.00000E+000	6.74550E-001	-1.08955E-004	10	...........	-327.56
	351	352	7.12737E-001	6.83114E-003	0.00000E+000	7.13550E-001	-1.08738E-004	10	...........	-327.56
	390	391	7.51726E-001	6.52866E-003	0.00000E+000	7.52550E-001	-1.05838E-004	10	...........	-327.56
	429	430	7.90655E-001	6.56104E-003	0.00000E+000	7.91550E-001	-1.10188E-004	10	...........	-327.56
	468	469	8.29618E-001	6.52285E-003	0.00000E+000	8.30550E-001	-1.09305E-004	10	...........	-327.56
	507	508	8.68579E-001	6.76271E-003	0.00000E+000	8.69550E-001	-1.07021E-004	10	...........	-327.56
	546	547	9.07571E-001	7.39141E-003	0.00000E+000	9.08550E-001	-1.08538E-004	10	...........	-327.56
	585	586	9.46440E-001	8.09463E-003	0.00000E+000	9.47550E-001	-1.11955E-004	10	...........	-327.56
	624	625	9.85440E-001	1.09101E-002	0.00000E+000	9.86550E-001	-1.06255E-004	10	...........	-327.56
	663	664	1.02431E+000	1.49353E-002	0.00000E+000	1.02555E+000	-1.04888E-004	10	...........	-327.56
	702	703	1.06315E+000	2.04199E-002	0.00000E+000	1.06455E+000	-1.06971E-004	10	...........	-327.56
	741	742	1.10226E+000	1.88313E-002	0.00000E+000	1.10355E+000	-1.06838E-004	10	...........	-327.56
	780	781	1.14111E+000	1.83921E-002	0.00000E+000	1.14255E+000	-1.07405E-004	10	...........	-327.56
	819	820	1.18006E+000	2.47055E-002	0.00000E+000	1.18155E+000	-1.07938E-004	10	...........	-327.56
	858	859	1.21921E+000	3.74622E-002	0.00000E+000	1.22055E+000	-1.11688E-004	11	...........	-327.56
	897	898	1.25825E+000	5.77324E-002	0.00000E+000	1.25955E+000	-1.07288E-004	11	...........	-327.56
	936	937	1.29710E+000	9.22127E-002	0.00000E+000	1.29855E+000	-1.11238E-004	11	...........	-327.56
	975	976	1.33602E+000	1.37081E-001	0.00000E+000	1.33755E+000	-1.11488E-004	11	...........	-327.56
	1014	1015	1.37481E+000	2.11454E-001	0.00000E+000	1.37655E+000	-1.09388E-004	11	...........	-327.56
	1053	1054	1.41402E+000	2.88102E-001	0.00000E+000	1.41555E+000	-1.08788E-004	12	...........	-327.56
	1092	1093	1.45289E+000	3.59924E-001	0.00000E+000	1.45455E+000	-1.11555E-004	12	...........	-327.56
	1131	1132	1.49186E+000	4.38387E-001	0.00000E+000	1.49355E+000	-1.10121E-004	12	...........	-327.56
	1170	1171	1.53072E+000	5.38921E-001	0.00000E+000	1.53255E+000	-1.12255E-004	12	...........	-327.56
	1209	1210	1.56965E+000	6.32170E-001	0.00000E+000	1.57155E+000	-1.12188E-004	12	...........	-327.56
	1248	1249	1.60852E+000	7.29786E-001	0.00000E+000	1.61055E+000	-1.12305E-004	12	...........	-327.56
	1287	1288	1.64743E+000	8.36261E-001	0.00000E+000	1.64955E+000	-1.11838E-004	12	...........	-327.56
	1326	1327	1.68635E+000	9.33783E-001	0.00000E+000	1.68855E+000	-1.11371E-004	12	...........	-327.56
	1365	1366	1.66938E+000	9.19414E-001	0.00000E+000	1.67155E+000	-1.07905E-004	12	...........	-327.56
	1404	1405	1.63040E+000	8.41973E-001	0.00000E+000	1.63255E+000	-1.08955E-004	12	...........	-327.56
	1443	1444	1.59153E+000	7.81518E-001	0.00000E+000	1.59355E+000	-1.10671E-004	12	...........	-327.56
	1482	1483	1.55256E+000	6.96981E-001	0.00000E+000	1.55455E+000	-1.07955E-004	12	...........	-327.56
	1521	1522	1.51374E+000	6.16098E-001	0.00000E+000	1.51555E+000	-1.07771E-004	12	...........	-327.56
	1560	1561	1.47475E+000	5.07324E-001	0.00000E+000	1.47655E+000	-1.05555E-004	12	...........	-327.56
	1599	1600	1.43588E+000	4.58723E-001	0.00000E+000	1.43755E+000	-1.08005E-004	12	...........	-327.56
	1638	1639	1.39687E+000	3.87885E-001	0.00000E+000	1.39855E+000	-1.12421E-004	12	...........	-327.56
	1677	1678	1.35805E+000	2.79743E-001	0.00000E+000	1.35955E+000	-1.12005E-004	12	...........	-327.56
	1716	1717	1.31887E+000	2.11141E-001	0.00000E+000	1.32055E+000	-1.03955E-004	11	...........	-327.56
	1755	1756	1.28003E+000	1.45525E-001	0.00000E+000	1.28155E+000	-1.06621E-004	11	...........	-327.56
	1794	1795	1.24119E+000	9.38941E-002	0.00000E+000	1.24255E+000	-1.08621E-004	11	...........	-327.56
	1833	1834	1.20223E+000	5.97469E-002	0.00000E+000	1.20355E+000	-1.06538E-004	11	...........	-327.56
	1872	1873	1.16336E+000	3.25467E-002	0.00000E+000	1.16455E+000	-1.12388E-004	11	...........	-327.56
	1911	1912	1.12420E+000	1.77875E-002	0.00000E+000	1.12555E+000	-1.08388E-004	10	...........	-327.56
	1950	1951	1.08537E+000	1.05789E-002	0.00000E+000	1.08655E+000	-1.06005E-004	10	...........	-327.56
	1989	1990	1.04638E+000	7.14553E-003	0.00000E+000	1.04755E+000	-1.13405E-004	10	...........	-327.56
	2028	2029	1.00748E+000	5.77099E-003	0.00000E+000	1.00855E+000	-1.08855E-004	10	...........	-327.56
	2067	2068	9.68467E-001	5.03760E-003	0.00000E+000	9.69550E-001	-1.10088E-004	10	...........	-327.56
	2106	2107	9.29557E-001	4.64306E-003	0.00000E+000	9.30550E-001	-1.08021E-004	10	...........	-327.56
	2145	2146	8.90575E-001	4.38685E-003	0.00000E+000	8.91550E-001	-1.11821E-004	10	...........	-327.56
	2184	2185	8.51645E-001	4.25061E-003	0.00000E+000	8.52550E-001	-1.08155E-004	10	...........	-327.56
	2223	2224	8.12710E-001	4.20937E-003	0.00000E+000	8.13550E-001	-1.09438E-004	10	...........	-327.56
	2262	2263	7.73735E-001	4.20725E-003	0.00000E+000	7.74550E-001	-1.11571E-004	10	...........	-327.56
	2301	2302	7.34695E-001	4.27290E-003	0.00000E+000	7.35550E-001	-1.09038E-004	10	...........	-327.56
	2340	2341	6.95857E-001	3.93027E-003	0.00000E+000	6.96550E-001	-1.09905E-004	10	...........	-327.56
	2379	2380	6.56792E-001	3.76647E-003	0.00000E+000	6.57550E-001	-1.06338E-004	10	...........	-327.56
	2418	2419	6.17881E-001	3.56530E-003	0.00000E+000	6.18550E-001	-1.07788E-004	10	...........	-327.56
	2457	2458	5.78844E-001	3.23743E-003	0.00000E+000	5.79550E-001	-1.11221E-004	10	...........	-327.56
	2496	2497	5.39947E-001	2.80390E-003	0.00000E+000	5.40550E-001	-1.07788E-004	10	...........	-327.56
	2535	2536	5.00740E-001	2.07863E-003	0.00000E+000	5.01550E-001	-1.10105E-004	9	...........	-327.56
	2574	2575	4.61845E-001	1.67153E-003	0.00000E+000	4.62550E-001	-1.09071E-004	9	...........	-327.56
	2613	2614	4.22870E-001	1.07753E-003	0.00000E+000	4.23550E-001	-1.09938E-004	9	...........	-327.56
	2652	2653	3.84042E-001	2.59419E-004	0.00000E+000	3.84550E-001	-1.11705E-004	9	...........	-327.56
	2691	2692	3.45209E-001	-5.54911E-004	0.00000E+000	3.45550E-001	-1.13338E-004	9	...........	-327.56
	2730	2731	3.06379E-001	-1.68436E-003	0.00000E+000	3.06550E-001	-1.07721E-004	9	...........	-327.56
	2769	2770	2.67477E-001	-1.93181E-003	0.00000E+000	2.67550E-001	-1.06755E-004	9	...........	-327.56
	2808	2809	2.28516E-001	-2.30381E-003	0.00000E+000	2.28550E-001	-1.06138E-004	9	...........	-327.56
	2847	2848	1.89356E-001	-2.77005E-003	0.00000E+000	1.89550E-001	-1.10505E-004	10	...........	-327.56
	2886	2887	1.50349E-001	-3.29554E-003	0.00000E+000	1.50550E-001	-1.13905E-004	10	...........	-327.56
	2925	2926	1.11421E-001	-4.21986E-003	0.00000E+000	1.11550E-001	-1.13471E-004	10	...........	-327.56
	2964	2965	7.24236E-002	-5.04532E-003	0.00000E+000	7.25500E-002	-1.11605E-004	10	...........	-327.56
	3003	3004	3.35292E-002	-5.69981E-003	0.00000E+000	3.35500E-002	-1.15738E-004	10	...........	-327.56
	3042	3043	-5.29879E-003	-6.12819E-003	0.00000E+000	-5.44998E-003	-1.12605E-004	10	...........	-327.56
	3081	3082	-4.42003E-002	-6.98012E-003	0.00000E+000	-4.44500E-002	-1.09521E-004	10	...........	-327.56
	3120	3121	-8.32436E-002	-6.59671E-003	0.00000E+000	-8.34500E-002	-1.11371E-004	10	...........	-327.56
	3159	3160	-1.22137E-001	-6.12356E-003	0.00000E+000	-1.22450E-001	-1.11871E-004	10	...........	-327.56
	3198	3199	-1.61173E-001	-6.00358E-003	0.00000E+000	-1.61450E-001	-1.12838E-004	10	...........	-327.56
	3237	3238	-2.00067E-001	-7.30490E-003	0.00000E+000	-2.00450E-001	-1.11571E-004	10	...........	-327.56
	3276	3277	-2.39057E-001	-9.28151E-003	0.00000E+000	-2.39450E-001	-1.14555E-004	10	...........	-327.56
	3315	3316	-2.77919E-001	-1.42865E-002	0.00000E+000	-2.78450E-001	-1.10738E-004	10	...........	-327.56
	3354	3355	-3.16785E-001	-2.65483E-002	0.00000E+000	-3.17450E-001	-9.87048E-005	10	...........	-327.56
	3393	3394	-3.55956E-001	-4.82818E-002	0.00000E+000	-3.56450E-001	-1.18588E-004	11	...........	-327.56
	3432	3433	-3.94963E-001	-6.36789E-002	0.00000E+000	-3.95450E-001	-1.14171E-004	11	...........	-327.56
	3471	3472	-4.33866E-001	-7.05156E-002	0.00000E+000	-4.34450E-001	-1.12488E-004	11	...........	-327.56
	3510	3511	-4.72894E-001	-9.13977E-002	0.00000E+000	-4.73450E-001	-1.13388E-004	11	...........	-327.56
	3549	3550	-5.11756E-001	-1.20647E-001	0.00000E+000	-5.12450E-001	-1.10821E-004	11	...........	-327.56
	3588	3589	-5.50540E-001	-1.97951E-001	0.00000E+000	-5.51450E-001	-1.02855E-004	11	...........	-327.56
	3627	3628	-5.89566E-001	-1.92859E-001	0.00000E+000	-5.90450E-001	-1.07638E-004	11	...........	-327.56
	3666	3667	-6.28494E-001	-1.83215E-001	0.00000E+000	-6.29450E-001	-1.06121E-004	11	...........	-327.56
	3705	3706	-6.67417E-001	-2.22476E-001	0.00000E+000	-6.68450E-001	-1.04205E-004	11	...........	-327.56
	3744	3745	-7.06568E-001	-2.81726E-001	0.00000E+000	-7.07450E-001	-1.07205E-004	12	...........	-327.56
	3783	3784	-7.45514E-001	-3.60173E-001	0.00000E+000	-7.46450E-001	-1.11655E-004	12	...........	-327.56
	3822	3823	-7.84402E-001	-4.35271E-001	0.00000E+000	-7.85450E-001	-1.10288E-004	12	...........	-327.56
	3836	3837	-7.98418E-001	-4.48502E-001	0.00000E+000	-7.99450E-001	-1.12638E-004	12	...........	-327.56
CURVE2	TABLE
	Pt	T	Vf	Im	Vu	Sig	Ach	IERange	Over	Temp
	#	s	V vs. Ref.	A	V	V	V	#	bits	deg C
	3837	3838	-7.97980E-001	-4.46901E-001	0.00000E+000	-7.99000E-001	-1.11855E-004	12	...........	-327.56
	3888	3889	-7.47125E-001	-2.76337E-001	0.00000E+000	-7.48000E-001	-1.14071E-004	12	...........	-327.56
	3939	3940	-6.96044E-001	-1.84563E-001	0.00000E+000	-6.97000E-001	-1.06721E-004	11	...........	-327.56
	3990	3991	-6.45223E-001	-1.05543E-001	0.00000E+000	-6.46000E-001	-1.10805E-004	11	...........	-327.56
	4041	4042	-5.94382E-001	-4.18668E-002	0.00000E+000	-5.95000E-001	-1.10971E-004	11	...........	-327.56
	4092	4093	-5.43393E-001	-4.33746E-002	0.00000E+000	-5.44000E-001	-1.09105E-004	11	...........	-327.56
	4143	4144	-4.92404E-001	-1.12637E-002	0.00000E+000	-4.93000E-001	-1.08071E-004	10	...........	-327.56
	4194	4195	-4.41705E-001	1.35953E-002	0.00000E+000	-4.42000E-001	-1.13221E-004	10	...........	-327.56
	4245	4246	-3.90411E-001	-1.39339E-002	0.00000E+000	-3.91000E-001	-1.14405E-004	10	...........	-327.56
	4296	4297	-3.39352E-001	-1.81122E-002	0.00000E+000	-3.40000E-001	-1.07155E-004	10	...........	-327.56
	4347	4348	-2.88507E-001	-1.56583E-002	0.00000E+000	-2.89000E-001	-1.09121E-004	10	...........	-327.56
	4398	4399	-2.37566E-001	-1.31024E-002	0.00000E+000	-2.38000E-001	-1.13805E-004	10	...........	-327.56
	4449	4450	-1.86713E-001	-5.28677E-003	0.00000E+000	-1.87000E-001	-1.12921E-004	10	...........	-327.56
	4500	4501	-1.35898E-001	6.56847E-004	0.00000E+000	-1.36000E-001	-1.15105E-004	9	...........	-327.56
	4551	4552	-8.49654E-002	1.01715E-002	0.00000E+000	-8.49999E-002	-1.13288E-004	10	...........	-327.56
	4602	4603	-3.40106E-002	4.15535E-002	0.00000E+000	-3.40000E-002	-1.13038E-004	11	...........	-327.56
	4653	4654	1.66756E-002	9.69543E-002	0.00000E+000	1.70000E-002	-1.10788E-004	11	...........	-327.56
	4704	4705	6.75649E-002	1.39230E-001	0.00000E+000	6.80000E-002	-1.08938E-004	11	...........	-327.56
	4755	4756	1.18522E-001	1.38001E-001	0.00000E+000	1.19000E-001	-1.11021E-004	11	...........	-327.56
	4806	4807	1.69525E-001	1.33549E-001	0.00000E+000	1.70000E-001	-1.14138E-004	11	...........	-327.56
	4857	4858	2.20524E-001	8.86204E-002	0.00000E+000	2.21000E-001	-1.13405E-004	11	...........	-327.56
	4908	4909	2.71490E-001	7.04936E-002	0.00000E+000	2.72000E-001	-1.13105E-004	11	...........	-327.56
	4959	4960	3.22428E-001	6.58773E-002	0.00000E+000	3.23000E-001	-1.14638E-004	11	...........	-327.56
	5010	5011	3.73424E-001	4.87332E-002	0.00000E+000	3.74000E-001	-1.12121E-004	11	...........	-327.56
	5061	5062	4.24413E-001	3.63896E-002	0.00000E+000	4.25000E-001	-1.13338E-004	11	...........	-327.56
	5112	5113	4.75392E-001	3.21374E-002	0.00000E+000	4.76000E-001	-1.13621E-004	11	...........	-327.56
	5163	5164	5.26244E-001	1.68219E-002	0.00000E+000	5.27000E-001	-1.12388E-004	10	...........	-327.56
	5214	5215	5.77122E-001	1.64859E-002	0.00000E+000	5.78000E-001	-1.16088E-004	10	...........	-327.56
	5265	5266	6.28056E-001	1.71348E-002	0.00000E+000	6.29000E-001	-1.11488E-004	10	...........	-327.56
	5316	5317	6.79010E-001	1.86058E-002	0.00000E+000	6.80000E-001	-1.09371E-004	10	...........	-327.56
	5367	5368	7.29978E-001	1.50604E-002	0.00000E+000	7.31000E-001	-1.09605E-004	10	...........	-327.56
	5418	5419	7.80972E-001	1.55699E-002	0.00000E+000	7.82000E-001	-1.10221E-004	10	...........	-327.56
	5469	5470	8.31944E-001	1.59276E-002	0.00000E+000	8.33000E-001	-1.11821E-004	10	...........	-327.56
	5520	5521	8.82917E-001	1.62527E-002	0.00000E+000	8.84000E-001	-1.08905E-004	10	...........	-327.56
	5571	5572	9.33830E-001	1.59703E-002	0.00000E+000	9.35000E-001	-1.11205E-004	10	...........	-327.56
	5622	5623	9.84811E-001	1.65644E-002	0.00000E+000	9.86000E-001	-1.11188E-004	10	...........	-327.56
	5673	5674	1.03578E+000	1.72083E-002	0.00000E+000	1.03700E+000	-1.10021E-004	10	...........	-327.56
	5724	5725	1.08667E+000	2.17481E-002	0.00000E+000	1.08800E+000	-1.08371E-004	10	...........	-327.56
	5775	5776	1.13757E+000	2.27852E-002	0.00000E+000	1.13900E+000	-1.11271E-004	10	...........	-327.56
	5826	5827	1.18858E+000	2.14029E-002	0.00000E+000	1.19000E+000	-1.08155E-004	10	...........	-327.56
	5877	5878	1.23978E+000	3.15647E-002	0.00000E+000	1.24100E+000	-1.12888E-004	11	...........	-327.56
	5928	5929	1.29067E+000	5.66669E-002	0.00000E+000	1.29200E+000	-1.13488E-004	11	...........	-327.56
	5979	5980	1.34153E+000	1.04996E-001	0.00000E+000	1.34300E+000	-1.09988E-004	11	...........	-327.56
	6030	6031	1.39239E+000	1.74988E-001	0.00000E+000	1.39400E+000	-1.07471E-004	11	...........	-327.56
	6081	6082	1.44318E+000	2.49171E-001	0.00000E+000	1.44500E+000	-1.06171E-004	11	...........	-327.56
[...]
	9175	9176	-4.60767E-001	1.75285E-003	0.00000E+000	-4.61000E-001	-1.15305E-004	9	...........	-327.56
	9201	9202	-4.34745E-001	1.44162E-003	0.00000E+000	-4.35000E-001	-1.12321E-004	9	...........	-327.56
	9227	9228	-4.08469E-001	-6.70564E-003	0.00000E+000	-4.09000E-001	-1.17821E-004	10	...........	-327.56
	9253	9254	-3.82446E-001	-7.82471E-003	0.00000E+000	-3.83000E-001	-1.17038E-004	10	...........	-327.56
	9279	9280	-3.56466E-001	-8.46547E-003	0.00000E+000	-3.57000E-001	-1.16821E-004	10	...........	-327.56
	9305	9306	-3.30439E-001	-1.12440E-002	0.00000E+000	-3.31000E-001	-1.13621E-004	10	...........	-327.56
	9331	9332	-3.04532E-001	-8.17328E-003	0.00000E+000	-3.05000E-001	-1.16355E-004	10	...........	-327.56
	9357	9358	-2.78506E-001	-9.34118E-003	0.00000E+000	-2.79000E-001	-1.16538E-004	10	...........	-327.56
	9383	9384	-2.52555E-001	-8.24958E-003	0.00000E+000	-2.53000E-001	-1.15021E-004	10	...........	-327.56
	9409	9410	-2.26577E-001	-6.86809E-003	0.00000E+000	-2.27000E-001	-1.12438E-004	10	...........	-327.56
	9435	9436	-2.00659E-001	-3.83578E-003	0.00000E+000	-2.01000E-001	-1.16821E-004	10	...........	-327.56
	9461	9462	-1.74686E-001	-2.51208E-003	0.00000E+000	-1.75000E-001	-1.13105E-004	10	...........	-327.56
	9487	9488	-1.48641E-001	-7.36512E-004	0.00000E+000	-1.49000E-001	-1.15821E-004	9	...........	-327.56
	9513	9514	-1.22966E-001	1.69788E-003	0.00000E+000	-1.23000E-001	-1.13438E-004	9	...........	-327.56
	9539	9540	-9.68773E-002	4.52873E-003	0.00000E+000	-9.70000E-002	-1.09005E-004	10	...........	-327.56
	9565	9566	-7.09269E-002	7.63724E-003	0.00000E+000	-7.10000E-002	-1.10171E-004	10	...........	-327.56
	9591	9592	-4.50695E-002	1.71110E-002	0.00000E+000	-4.50000E-002	-1.11538E-004	10	...........	-327.56
	9617	9618	-1.89203E-002	4.14188E-002	0.00000E+000	-1.90000E-002	-1.13255E-004	11	...........	-327.56
	9643	9644	6.79459E-003	6.46627E-002	0.00000E+000	7.00003E-003	-1.14138E-004	11	...........	-327.56
	9669	9670	3.27578E-002	8.59841E-002	0.00000E+000	3.30000E-002	-1.11755E-004	11	...........	-327.56
	9695	9696	5.87144E-002	1.00429E-001	0.00000E+000	5.90000E-002	-1.14155E-004	11	...........	-327.56
	9721	9722	8.46924E-002	1.05877E-001	0.00000E+000	8.50000E-002	-1.14855E-004	11	...........	-327.56
	9747	9748	1.10659E-001	9.92123E-002	0.00000E+000	1.11000E-001	-1.14488E-004	11	...........	-327.56
	9773	9774	1.36658E-001	8.96174E-002	0.00000E+000	1.37000E-001	-1.14671E-004	11	...........	-327.56
	9799	9800	1.62641E-001	7.80385E-002	0.00000E+000	1.63000E-001	-1.14371E-004	11	...........	-327.56
	9825	9826	1.88664E-001	6.82724E-002	0.00000E+000	1.89000E-001	-1.13238E-004	11	...........	-327.56
	9851	9852	2.14639E-001	5.73152E-002	0.00000E+000	2.15000E-001	-1.12338E-004	11	...........	-327.56
	9877	9878	2.40670E-001	3.27599E-002	0.00000E+000	2.41000E-001	-1.11471E-004	11	...........	-327.56
	9903	9904	2.66625E-001	3.38715E-002	0.00000E+000	2.67000E-001	-1.15355E-004	11	...........	-327.56
	9929	9930	2.92635E-001	3.43872E-002	0.00000E+000	2.93000E-001	-1.12938E-004	11	...........	-327.56
	9955	9956	3.18578E-001	3.13957E-002	0.00000E+000	3.19000E-001	-1.13505E-004	11	...........	-327.56
	9981	9982	3.44566E-001	3.29427E-002	0.00000E+000	3.45000E-001	-1.13105E-004	11	...........	-327.56
	10007	10008	3.70538E-001	2.61457E-002	0.00000E+000	3.71000E-001	-1.14771E-004	11	...........	-327.56
	10033	10034	3.96328E-001	1.72201E-002	0.00000E+000	3.97000E-001	-1.12638E-004	10	...........	-327.56
	10059	10060	4.22346E-001	1.60562E-002	0.00000E+000	4.23000E-001	-1.12505E-004	10	...........	-327.56
	10085	10086	4.48252E-001	1.57189E-002	0.00000E+000	4.49000E-001	-1.12821E-004	10	...........	-327.56
	10111	10112	4.74237E-001	1.52558E-002	0.00000E+000	4.75000E-001	-1.09171E-004	10	...........	-327.56
	10137	10138	5.00230E-001	1.42182E-002	0.00000E+000	5.01000E-001	-1.12255E-004	10	...........	-327.56
	10163	10164	5.26300E-001	1.31869E-002	0.00000E+000	5.27000E-001	-1.13655E-004	10	...........	-327.56
	10189	10190	5.52208E-001	1.28879E-002	0.00000E+000	5.53000E-001	-1.14838E-004	10	...........	-327.56
	10215	10216	5.78185E-001	1.26469E-002	0.00000E+000	5.79000E-001	-1.13471E-004	10	...........	-327.56
	10241	10242	6.04184E-001	1.27166E-002	0.00000E+000	6.05000E-001	-1.14005E-004	10	...........	-327.56
	10267	10268	6.30195E-001	1.25103E-002	0.00000E+000	6.31000E-001	-1.13838E-004	10	...........	-327.56
	10293	10294	6.56134E-001	1.24626E-002	0.00000E+000	6.57000E-001	-1.13755E-004	10	...........	-327.56
	10319	10320	6.82113E-001	1.26744E-002	0.00000E+000	6.83000E-001	-1.13738E-004	10	...........	-327.56
	10345	10346	7.08111E-001	1.26930E-002	0.00000E+000	7.09000E-001	-1.14455E-004	10	...........	-327.56
	10371	10372	7.34026E-001	1.30906E-002	0.00000E+000	7.35000E-001	-1.16355E-004	10	...........	-327.56
	10397	10398	7.60022E-001	1.27432E-002	0.00000E+000	7.61000E-001	-1.14538E-004	10	...........	-327.56
	10423	10424	7.86002E-001	1.31336E-002	0.00000E+000	7.87000E-001	-1.14338E-004	10	...........	-327.56
	10449	10450	8.11985E-001	1.34369E-002	0.00000E+000	8.13000E-001	-1.10755E-004	10	...........	-327.56
	10475	10476	8.37944E-001	1.32622E-002	0.00000E+000	8.39000E-001	-1.12938E-004	10	...........	-327.56
	10501	10502	8.63946E-001	1.33863E-002	0.00000E+000	8.65000E-001	-1.10988E-004	10	...........	-327.56
	10527	10528	8.89906E-001	1.28432E-002	0.00000E+000	8.91000E-001	-1.13405E-004	10	...........	-327.56
	10553	10554	9.15904E-001	1.26226E-002	0.00000E+000	9.17000E-001	-1.10038E-004	10	...........	-327.56
	10579	10580	9.41849E-001	1.18675E-002	0.00000E+000	9.43000E-001	-1.13171E-004	10	...........	-327.56
	10605	10606	9.67898E-001	1.17358E-002	0.00000E+000	9.69000E-001	-1.12621E-004	10	...........	-327.56
	10631	10632	9.93830E-001	1.20649E-002	0.00000E+000	9.95000E-001	-1.12505E-004	10	...........	-327.56
	10657	10658	1.01982E+000	1.21393E-002	0.00000E+000	1.02100E+000	-1.11405E-004	10	...........	-327.56
	10683	10684	1.04577E+000	1.31932E-002	0.00000E+000	1.04700E+000	-1.14138E-004	10	...........	-327.56
	10709	10710	1.07175E+000	1.38477E-002	0.00000E+000	1.07300E+000	-1.12605E-004	10	...........	-327.56
	10735	10736	1.09772E+000	1.48185E-002	0.00000E+000	1.09900E+000	-1.10888E-004	10	...........	-327.56
	10761	10762	1.12371E+000	1.46348E-002	0.00000E+000	1.12500E+000	-1.10905E-004	10	...........	-327.56
	10787	10788	1.14965E+000	1.36181E-002	0.00000E+000	1.15100E+000	-1.11021E-004	10	...........	-327.56
	10813	10814	1.17565E+000	1.31932E-002	0.00000E+000	1.17700E+000	-1.12488E-004	10	...........	-327.56
	10839	10840	1.20159E+000	1.44073E-002	0.00000E+000	1.20300E+000	-1.14805E-004	10	...........	-327.56
	10865	10866	1.22754E+000	1.86574E-002	0.00000E+000	1.22900E+000	-1.10121E-004	10	...........	-327.56
	10891	10892	1.25345E+000	2.62281E-002	0.00000E+000	1.25500E+000	-1.06855E-004	10	...........	-327.56
	10917	10918	1.27969E+000	3.61933E-002	0.00000E+000	1.28100E+000	-1.11488E-004	11	...........	-327.56
	10943	10944	1.30565E+000	5.08897E-002	0.00000E+000	1.30700E+000	-1.13621E-004	11	...........	-327.56
	10969	10970	1.33155E+000	7.88374E-002	0.00000E+000	1.33300E+000	-1.13371E-004	11	...........	-327.56
	10995	10996	1.35749E+000	1.08982E-001	0.00000E+000	1.35900E+000	-1.07988E-004	11	...........	-327.56
	11021	11022	1.38341E+000	1.47183E-001	0.00000E+000	1.38500E+000	-1.10105E-004	11	...........	-327.56
	11047	11048	1.40939E+000	1.77139E-001	0.00000E+000	1.41100E+000	-1.09205E-004	11	...........	-327.56
	11073	11074	1.43525E+000	2.14051E-001	0.00000E+000	1.43700E+000	-1.09971E-004	11	...........	-327.56
	11099	11100	1.46119E+000	2.49025E-001	0.00000E+000	1.46300E+000	-1.09888E-004	11	...........	-327.56
	11125	11126	1.48743E+000	2.81594E-001	0.00000E+000	1.48900E+000	-1.16055E-004	12	...........	-327.56
	11151	11152	1.51337E+000	3.40570E-001	0.00000E+000	1.51500E+000	-1.10838E-004	12	...........	-327.56
	11177	11178	1.53927E+000	3.92472E-001	0.00000E+000	1.54100E+000	-1.09321E-004	12	...........	-327.56
	11203	11204	1.56520E+000	4.74556E-001	0.00000E+000	1.56700E+000	-1.11288E-004	12	...........	-327.56
	11229	11230	1.59114E+000	5.35937E-001	0.00000E+000	1.59300E+000	-1.09305E-004	12	...........	-327.56
	11255	11256	1.61709E+000	6.06311E-001	0.00000E+000	1.61900E+000	-1.13571E-004	12	...........	-327.56
	11281	11282	1.64304E+000	6.70403E-001	0.00000E+000	1.64500E+000	-1.11238E-004	12	...........	-327.56
	11307	11308	1.66898E+000	7.39697E-001	0.00000E+000	1.67100E+000	-1.14605E-004	12	...........	-327.56
	11333	11334	1.69492E+000	7.92558E-001	0.00000E+000	1.69700E+000	-1.12638E-004	12	...........	-327.56
	11336	11337	1.69790E+000	8.11048E-001	0.00000E+000	1.70000E+000	-1.13505E-004	12	...........	-327.56