File: testing/data/240902_05_MCL13_cswWE_CV2_750C_CO2.DTA
EXPLAIN
TAG	CV
TITLE	LABEL	Cyclic Voltammetry	Test Identifier
DATE	LABEL	9/2/2024	Date
TIME	LABEL	19:13:43	Time
NOTES	NOTES	5	Notes...
	cswWE - carbon steel wire
cspWE - carbon steel plate 2x2 tapered

Carbon steel plate counter electrode
Carbon steel wire reference electrode
PSTAT	PSTAT	REF3000-48128	Potentiostat
VINIT	POTEN	0.00000E+000	T	Initial E (V)
VLIMIT1	POTEN	1.70000E+000	F	Scan Limit 1 (V)
VLIMIT2	POTEN	-8.00000E-001	F	Scan Limit 2 (V)
VFINAL	POTEN	1.70000E+000	F	Final E (V)
SCANRATE	QUANT	2.00000E+000	Scan Rate (mV/s)
STEPSIZE	QUANT	1.00000E+000	Step Size (mV)
CYCLES	IQUANT	2	Cycles (#)
IMODE	SELECTOR	0	I/E Range Mode
IRANGE	QUANT	3.00000E-001	Max Current (mA)
AREA	QUANT	1.00000E+000	Sample Area (cm^2)
EQDELAY	QUANT	0.00000E+000	Equil. Time (s)
IRCOMP	SELECTOR	0	IRComp
PFCOR	QUANT	5.00000E+001	PF Corr. (ohm)
SAMPLINGMODE	SELECTOR	1	Sampling Mode
EOC	QUANT	0.4521599	Open Circuit (V)
ELECTRODETYPE	SELECTOR	0	Electrode Type
STRIPPING	TOGGLE	F	Used for Stripping
SEQUENCER	TOGGLE	TRUE	Run as Sequence
PSTATMODEL	IQUANT	5	Pstat Model
PSTATSECTION	LABEL	REF3000-48128	Pstat Section
PSTATSERIALNO	LABEL	48128	Pstat Serial Number
CTRLMODE	IQUANT	1	Control Mode
ELECTROMETER	IQUANT	0	RE=0 or CS=1
IESTAB	IQUANT	2	I/E Stability
CASPEED	IQUANT	4	Control Amp Speed
CONVENTION	IQUANT	1	Current Convention
ICHRANGE	IQUANT	2	Ich Range
ICHRANGEMODE	TOGGLE	F	Ich Auto Range
ICHOFFSETENABLE	TOGGLE	F	Ich Offset Enable
ICHOFFSET	QUANT	0	Ich Offset (V)
ICHFILTER	IQUANT	3	Ich Filter
VCHRANGE	IQUANT	2	Vch Range
VCHRANGEMODE	TOGGLE	F	Vch Auto Range
VCHOFFSETENABLE	TOGGLE	F	Vch Offset Enable
VCHOFFSET	QUANT	0	Vch Offset (V)
VCHFILTER	IQUANT	3	Vch Filter
ACHRANGE	IQUANT	2	Ach Range
ACHOFFSETENABLE	TOGGLE	F	Ach Offset Enable
ACHOFFSET	QUANT	0	Ach Offset (V)
ACHFILTER	IQUANT	1	Ach Filter
IERANGELOWERLIMIT	IQUANT	2	I/E Range Lower Limit
IERANGEMODE	TOGGLE	T	I/E AutoRange
IERANGE	IQUANT	9	I/E Range
POSFEEDENABLE	TOGGLE	F	Positive Feedback IR Comp
POSFEEDRESISTANCE	QUANT	0	Positive Feedback Resistance (ohm)
ACHSELECT	IQUANT	4	Ach Select
SENSECABLEID	IQUANT	14	Sense Cable ID
PWRCABLEID	IQUANT	7	Power Cable ID
DCCALDATE	LABEL	8/16/2024	DC Calibration Date
ACCALDATE	LABEL	8/16/2024	AC Calibration Date
THERMOSELECT	IQUANT	1	Thermo Select
FRAMEWORKVERSION	LABEL	7.10.3	Framework Version
INSTRUMENTVERSION	LABEL	4.91	Instrument Version
COMMVERSION	LABEL	5.10	Communications Version
CPUPLDVERSION	LABEL	6.00	CPU PLD Version
CTRLPLDVERSION	LABEL	3.21	CTRL PLD Version
PSTATPLDVERSION	LABEL	0.00	PSTAT PLD Version
COMPLIANCEVOLTAGE	IQUANT	0	Compliance Voltage
CURVE1	TABLE
	Pt	T	Vf	Im	Vu	Sig	Ach	IERange	Over	Temp
	#	s	V vs. Ref.	A	V	V	V	#	bits	deg C
	0	0.5	4.51431E-001	1.09690E-003	0.00000E+000	4.52150E-001	-7.74881E-005	9	...........	-327.56
	38	19.5	4.89395E-001	1.81141E-002	0.00000E+000	4.90150E-001	-8.18881E-005	10	...........	-327.56
	76	38.5	5.27151E-001	2.62705E-002	0.00000E+000	5.28150E-001	-8.72214E-005	10	...........	-327.56
	114	57.5	5.65466E-001	3.14220E-002	0.00000E+000	5.66150E-001	-9.07548E-005	11	...........	-327.56
	152	76.5	6.03335E-001	3.35935E-002	0.00000E+000	6.04150E-001	-9.14548E-005	11	...........	-327.56
	190	95.5	6.41413E-001	3.45110E-002	0.00000E+000	6.42150E-001	-9.35881E-005	11	...........	-327.56
	228	114.5	6.79271E-001	3.40484E-002	0.00000E+000	6.80150E-001	-9.39214E-005	11	...........	-327.56
	266	133.5	7.17274E-001	3.32748E-002	0.00000E+000	7.18150E-001	-8.81548E-005	11	...........	-327.56
	304	152.5	7.55247E-001	3.15017E-002	0.00000E+000	7.56150E-001	-8.96881E-005	11	...........	-327.56
	342	171.5	7.93200E-001	2.97147E-002	0.00000E+000	7.94150E-001	-9.08881E-005	11	...........	-327.56
	380	190.5	8.31175E-001	2.83411E-002	0.00000E+000	8.32150E-001	-9.61881E-005	11	...........	-327.56
	418	209.5	8.69132E-001	2.72869E-002	0.00000E+000	8.70150E-001	-9.13548E-005	11	...........	-327.56
	456	228.5	9.07138E-001	2.64809E-002	0.00000E+000	9.08150E-001	-9.22214E-005	11	...........	-327.56
	494	247.5	9.45032E-001	2.62800E-002	0.00000E+000	9.46150E-001	-9.13214E-005	11	...........	-327.56
	532	266.5	9.83056E-001	2.78059E-002	0.00000E+000	9.84150E-001	-9.27548E-005	11	...........	-327.56
	570	285.5	1.02097E+000	3.40470E-002	0.00000E+000	1.02215E+000	-8.98881E-005	11	...........	-327.56
	608	304.5	1.05896E+000	4.65328E-002	0.00000E+000	1.06015E+000	-9.17881E-005	11	...........	-327.56
	646	323.5	1.09683E+000	6.46422E-002	0.00000E+000	1.09815E+000	-9.23214E-005	11	...........	-327.56
	684	342.5	1.13479E+000	8.78470E-002	0.00000E+000	1.13615E+000	-8.88214E-005	11	...........	-327.56
	722	361.5	1.17272E+000	1.16282E-001	0.00000E+000	1.17415E+000	-9.34881E-005	11	...........	-327.56
	760	380.5	1.21063E+000	1.50459E-001	0.00000E+000	1.21215E+000	-8.89548E-005	11	...........	-327.56
	798	399.5	1.24849E+000	1.96365E-001	0.00000E+000	1.25015E+000	-9.08214E-005	11	...........	-327.56
	836	418.5	1.28640E+000	2.51939E-001	0.00000E+000	1.28815E+000	-8.93214E-005	11	...........	-327.56
	874	437.5	1.32460E+000	3.18038E-001	0.00000E+000	1.32615E+000	-9.26214E-005	12	...........	-327.56
	912	456.5	1.36251E+000	3.94586E-001	0.00000E+000	1.36415E+000	-9.05548E-005	12	...........	-327.56
	950	475.5	1.40036E+000	4.79164E-001	0.00000E+000	1.40215E+000	-9.13881E-005	12	...........	-327.56
	988	494.5	1.43833E+000	5.68213E-001	0.00000E+000	1.44015E+000	-9.11881E-005	12	...........	-327.56
	1026	513.5	1.47618E+000	6.61131E-001	0.00000E+000	1.47815E+000	-9.03881E-005	12	...........	-327.56
	1064	532.5	1.51413E+000	7.60204E-001	0.00000E+000	1.51615E+000	-8.59214E-005	12	...........	-327.56
	1102	551.5	1.55195E+000	8.63308E-001	0.00000E+000	1.55415E+000	-9.08214E-005	12	...........	-327.56
	1140	570.5	1.58990E+000	9.62244E-001	0.00000E+000	1.59215E+000	-8.62548E-005	12	...........	-327.56
	1178	589.5	1.62777E+000	1.06745E+000	0.00000E+000	1.63015E+000	-9.02214E-005	12	...........	-327.56
	1216	608.5	1.66574E+000	1.16389E+000	0.00000E+000	1.66815E+000	-8.87548E-005	12	...........	-327.56
	1254	627.5	1.69168E+000	1.23559E+000	0.00000E+000	1.69415E+000	-9.06214E-005	12	...........	-327.56
	1292	646.5	1.65369E+000	1.16605E+000	0.00000E+000	1.65615E+000	-8.90548E-005	12	...........	-327.56
	1330	665.5	1.61586E+000	1.07375E+000	0.00000E+000	1.61815E+000	-9.09214E-005	12	...........	-327.56
	1368	684.5	1.57784E+000	9.93041E-001	0.00000E+000	1.58015E+000	-8.75881E-005	12	...........	-327.56
	1406	703.5	1.54000E+000	8.99626E-001	0.00000E+000	1.54215E+000	-8.86548E-005	12	...........	-327.56
	1444	722.5	1.50206E+000	8.08279E-001	0.00000E+000	1.50415E+000	-8.90548E-005	12	...........	-327.56
	1482	741.5	1.46420E+000	7.25056E-001	0.00000E+000	1.46615E+000	-9.12214E-005	12	...........	-327.56
	1520	760.5	1.42625E+000	6.37079E-001	0.00000E+000	1.42815E+000	-9.17214E-005	12	...........	-327.56
	1558	779.5	1.38836E+000	5.52949E-001	0.00000E+000	1.39015E+000	-9.00214E-005	12	...........	-327.56
	1596	798.5	1.35037E+000	4.69373E-001	0.00000E+000	1.35215E+000	-9.03548E-005	12	...........	-327.56
	1634	817.5	1.31259E+000	3.94413E-001	0.00000E+000	1.31415E+000	-8.55881E-005	12	...........	-327.56
	1672	836.5	1.27460E+000	3.24826E-001	0.00000E+000	1.27615E+000	-9.00881E-005	12	...........	-327.56
	1710	855.5	1.23672E+000	2.59491E-001	0.00000E+000	1.23815E+000	-9.19881E-005	12	...........	-327.56
	1748	874.5	1.19850E+000	1.97237E-001	0.00000E+000	1.20015E+000	-9.01881E-005	11	...........	-327.56
	1786	893.5	1.16069E+000	1.46302E-001	0.00000E+000	1.16215E+000	-8.55548E-005	11	...........	-327.56
	1824	912.5	1.12277E+000	1.03485E-001	0.00000E+000	1.12415E+000	-8.56214E-005	11	...........	-327.56
	1862	931.5	1.08488E+000	6.74974E-002	0.00000E+000	1.08615E+000	-8.96548E-005	11	...........	-327.56
	1900	950.5	1.04693E+000	4.05948E-002	0.00000E+000	1.04815E+000	-8.78214E-005	11	...........	-327.56
	1938	969.5	1.00879E+000	2.31638E-002	0.00000E+000	1.01015E+000	-8.50214E-005	10	...........	-327.56
	1976	988.5	9.70869E-001	1.53172E-002	0.00000E+000	9.72150E-001	-8.51881E-005	10	...........	-327.56
	2014	1007.5	9.32969E-001	1.29919E-002	0.00000E+000	9.34150E-001	-9.04548E-005	10	...........	-327.56
	2052	1026.5	8.95005E-001	1.21404E-002	0.00000E+000	8.96150E-001	-9.15214E-005	10	...........	-327.56
	2090	1045.5	8.57063E-001	1.15250E-002	0.00000E+000	8.58150E-001	-9.02548E-005	10	...........	-327.56
	2128	1064.5	8.19128E-001	1.09644E-002	0.00000E+000	8.20150E-001	-8.97881E-005	10	...........	-327.56
	2166	1083.5	7.81088E-001	1.06681E-002	0.00000E+000	7.82150E-001	-8.97214E-005	10	...........	-327.56
	2204	1102.5	7.43189E-001	9.87753E-003	0.00000E+000	7.44150E-001	-8.97214E-005	10	...........	-327.56
	2242	1121.5	7.05210E-001	8.72505E-003	0.00000E+000	7.06150E-001	-9.12548E-005	10	...........	-327.56
	2280	1140.5	6.67318E-001	7.48681E-003	0.00000E+000	6.68150E-001	-9.09548E-005	10	...........	-327.56
	2318	1159.5	6.29322E-001	5.73051E-003	0.00000E+000	6.30150E-001	-9.10548E-005	10	...........	-327.56
	2356	1178.5	5.91444E-001	3.50141E-003	0.00000E+000	5.92150E-001	-8.80548E-005	10	...........	-327.56
	2394	1197.5	5.53446E-001	7.12433E-004	0.00000E+000	5.54150E-001	-9.15214E-005	9	...........	-327.56
	2432	1216.5	5.15915E-001	-2.73135E-003	0.00000E+000	5.16150E-001	-7.66881E-005	9	...........	-327.56
	2470	1235.5	4.77650E-001	-6.81573E-003	0.00000E+000	4.78150E-001	-9.12881E-005	10	...........	-327.56
	2508	1254.5	4.39827E-001	-1.11490E-002	0.00000E+000	4.40150E-001	-9.36548E-005	10	...........	-327.56
	2546	1273.5	4.01819E-001	-1.51212E-002	0.00000E+000	4.02150E-001	-8.92881E-005	10	...........	-327.56
	2584	1292.5	3.63942E-001	-1.85042E-002	0.00000E+000	3.64150E-001	-8.39548E-005	10	...........	-327.56
	2622	1311.5	3.25946E-001	-2.14359E-002	0.00000E+000	3.26150E-001	-8.49548E-005	10	...........	-327.56
	2660	1330.5	2.88114E-001	-2.46001E-002	0.00000E+000	2.88150E-001	-8.54548E-005	10	...........	-327.56
	2698	1349.5	2.49815E-001	-2.71943E-002	0.00000E+000	2.50150E-001	-8.95881E-005	11	...........	-327.56
	2736	1368.5	2.11890E-001	-3.01817E-002	0.00000E+000	2.12150E-001	-8.59881E-005	11	...........	-327.56
	2774	1387.5	1.73883E-001	-3.54073E-002	0.00000E+000	1.74150E-001	-9.30881E-005	11	...........	-327.56
	2812	1406.5	1.35976E-001	-4.29112E-002	0.00000E+000	1.36150E-001	-9.48881E-005	11	...........	-327.56
	2850	1425.5	9.80151E-002	-5.08281E-002	0.00000E+000	9.81500E-002	-9.33214E-005	11	...........	-327.56
	2888	1444.5	6.00942E-002	-5.40102E-002	0.00000E+000	6.01500E-002	-9.79214E-005	11	...........	-327.56
	2926	1463.5	2.20772E-002	-4.85389E-002	0.00000E+000	2.21500E-002	-9.27881E-005	11	...........	-327.56
	2964	1482.5	-1.56691E-002	-4.29844E-002	0.00000E+000	-1.58500E-002	-8.91548E-005	11	...........	-327.56
	3002	1501.5	-5.37113E-002	-3.61727E-002	0.00000E+000	-5.38500E-002	-8.87548E-005	11	...........	-327.56
	3040	1520.5	-9.16458E-002	-2.99735E-002	0.00000E+000	-9.18500E-002	-9.15214E-005	11	...........	-327.56
	3078	1539.5	-1.29635E-001	-2.48698E-002	0.00000E+000	-1.29850E-001	-9.08881E-005	11	...........	-327.56
	3116	1558.5	-1.67360E-001	-1.85790E-002	0.00000E+000	-1.67850E-001	-8.91881E-005	10	...........	-327.56
	3154	1577.5	-2.05378E-001	-1.55708E-002	0.00000E+000	-2.05850E-001	-9.10548E-005	10	...........	-327.56
	3192	1596.5	-2.43327E-001	-1.65689E-002	0.00000E+000	-2.43850E-001	-8.47548E-005	10	...........	-327.56
	3230	1615.5	-2.81299E-001	-1.87058E-002	0.00000E+000	-2.81850E-001	-8.24881E-005	10	...........	-327.56
	3268	1634.5	-3.19237E-001	-2.25033E-002	0.00000E+000	-3.19850E-001	-8.79214E-005	10	...........	-327.56
	3306	1653.5	-3.57384E-001	-2.88655E-002	0.00000E+000	-3.57850E-001	-8.92548E-005	11	...........	-327.56
	3344	1672.5	-3.95331E-001	-4.09546E-002	0.00000E+000	-3.95850E-001	-9.22881E-005	11	...........	-327.56
	3382	1691.5	-4.33261E-001	-7.14755E-002	0.00000E+000	-4.33850E-001	-9.05548E-005	11	...........	-327.56
	3420	1710.5	-4.71229E-001	-1.16828E-001	0.00000E+000	-4.71850E-001	-9.08881E-005	11	...........	-327.56
	3458	1729.5	-5.09027E-001	-1.77531E-001	0.00000E+000	-5.09850E-001	-8.79548E-005	11	...........	-327.56
	3496	1748.5	-5.46915E-001	-2.39088E-001	0.00000E+000	-5.47850E-001	-8.44881E-005	11	...........	-327.56
	3534	1767.5	-5.85048E-001	-3.01575E-001	0.00000E+000	-5.85850E-001	-9.27214E-005	12	...........	-327.56
	3572	1786.5	-6.23041E-001	-3.26393E-001	0.00000E+000	-6.23850E-001	-1.00088E-004	12	...........	-327.56
	3610	1805.5	-6.60941E-001	-3.51369E-001	0.00000E+000	-6.61850E-001	-8.85548E-005	12	...........	-327.56
	3648	1824.5	-6.98964E-001	-3.77204E-001	0.00000E+000	-6.99850E-001	-9.24548E-005	12	...........	-327.56
	3686	1843.5	-7.36856E-001	-3.65626E-001	0.00000E+000	-7.37850E-001	-9.14881E-005	12	...........	-327.56
	3724	1862.5	-7.74880E-001	-3.74696E-001	0.00000E+000	-7.75850E-001	-9.22548E-005	12	...........	-327.56
	3748	1874.5	-7.98854E-001	-4.08921E-001	0.00000E+000	-7.99850E-001	-8.85548E-005	12	...........	-327.56
CURVE2	TABLE
	Pt	T	Vf	Im	Vu	Sig	Ach	IERange	Over	Temp
	#	s	V vs. Ref.	A	V	V	V	#	bits	deg C
	3749	1875	-7.97991E-001	-4.04572E-001	0.00000E+000	-7.99000E-001	-9.04548E-005	12	...........	-327.56
	3800	1900.5	-7.47104E-001	-2.78264E-001	0.00000E+000	-7.48000E-001	-9.04214E-005	12	...........	-327.56
	3851	1926	-6.96051E-001	-1.81355E-001	0.00000E+000	-6.97000E-001	-9.31214E-005	11	...........	-327.56
	3902	1951.5	-6.45210E-001	-1.05768E-001	0.00000E+000	-6.46000E-001	-9.07548E-005	11	...........	-327.56
	3953	1977	-5.94348E-001	-5.43557E-002	0.00000E+000	-5.95000E-001	-9.30548E-005	11	...........	-327.56
	4004	2002.5	-5.43410E-001	-2.68468E-002	0.00000E+000	-5.44000E-001	-9.38214E-005	11	...........	-327.56
	4055	2028	-4.92704E-001	1.20276E-002	0.00000E+000	-4.93000E-001	-9.09548E-005	10	...........	-327.56
	4106	2053.5	-4.41673E-001	7.40570E-002	0.00000E+000	-4.42000E-001	-9.12881E-005	11	...........	-327.56
	4157	2079	-3.90846E-001	1.38690E-001	0.00000E+000	-3.91000E-001	-8.78548E-005	11	...........	-327.56
	4208	2104.5	-3.39869E-001	1.40069E-001	0.00000E+000	-3.40000E-001	-8.93214E-005	11	...........	-327.56
	4259	2130	-2.88860E-001	9.45522E-002	0.00000E+000	-2.89000E-001	-9.01881E-005	11	...........	-327.56
	4310	2155.5	-2.37862E-001	6.76462E-002	0.00000E+000	-2.38000E-001	-9.19214E-005	11	...........	-327.56
	4361	2181	-1.86893E-001	5.69672E-002	0.00000E+000	-1.87000E-001	-9.08548E-005	11	...........	-327.56
	4412	2206.5	-1.35964E-001	5.55662E-002	0.00000E+000	-1.36000E-001	-9.04881E-005	11	...........	-327.56
	4463	2232	-8.49495E-002	6.16861E-002	0.00000E+000	-8.49999E-002	-9.31881E-005	11	...........	-327.56
	4514	2257.5	-3.40793E-002	7.30129E-002	0.00000E+000	-3.40000E-002	-8.99548E-005	11	...........	-327.56
	4565	2283	1.66483E-002	9.87173E-002	0.00000E+000	1.70000E-002	-9.19548E-005	11	...........	-327.56
	4616	2308.5	6.75196E-002	1.46983E-001	0.00000E+000	6.80000E-002	-9.37548E-005	11	...........	-327.56
	4667	2334	1.18346E-001	2.12156E-001	0.00000E+000	1.19000E-001	-9.15881E-005	11	...........	-327.56
	4718	2359.5	1.69533E-001	2.77522E-001	0.00000E+000	1.70000E-001	-9.21548E-005	12	...........	-327.56
	4769	2385	2.20394E-001	3.42816E-001	0.00000E+000	2.21000E-001	-9.49548E-005	12	...........	-327.56
	4820	2410.5	2.71372E-001	3.44360E-001	0.00000E+000	2.72000E-001	-9.29214E-005	12	...........	-327.56
	4871	2436	3.22352E-001	2.62993E-001	0.00000E+000	3.23000E-001	-9.30548E-005	12	...........	-327.56
	4922	2461.5	3.73098E-001	2.17773E-001	0.00000E+000	3.74000E-001	-8.95214E-005	11	...........	-327.56
	4973	2487	4.24100E-001	2.09247E-001	0.00000E+000	4.25000E-001	-9.49881E-005	11	...........	-327.56
	5024	2512.5	4.75125E-001	1.99388E-001	0.00000E+000	4.76000E-001	-9.34548E-005	11	...........	-327.56
	5075	2538	5.26008E-001	1.90303E-001	0.00000E+000	5.27000E-001	-9.18548E-005	11	...........	-327.56
	5126	2563.5	5.76996E-001	1.73708E-001	0.00000E+000	5.78000E-001	-9.39548E-005	11	...........	-327.56
	5177	2589	6.27980E-001	1.43888E-001	0.00000E+000	6.29000E-001	-9.08548E-005	11	...........	-327.56
	5228	2614.5	6.79011E-001	1.13748E-001	0.00000E+000	6.80000E-001	-8.94214E-005	11	...........	-327.56
	5279	2640	7.29964E-001	9.11966E-002	0.00000E+000	7.31000E-001	-9.29214E-005	11	...........	-327.56
	5330	2665.5	7.80975E-001	7.60159E-002	0.00000E+000	7.82000E-001	-9.24214E-005	11	...........	-327.56
	5381	2691	8.31985E-001	6.59197E-002	0.00000E+000	8.33000E-001	-9.02548E-005	11	...........	-327.56
	5432	2716.5	8.82979E-001	6.01857E-002	0.00000E+000	8.84000E-001	-8.70881E-005	11	...........	-327.56
	5483	2742	9.33875E-001	5.66068E-002	0.00000E+000	9.35000E-001	-9.44214E-005	11	...........	-327.56
	5534	2767.5	9.84861E-001	5.41485E-002	0.00000E+000	9.86000E-001	-9.51214E-005	11	...........	-327.56
	5585	2793	1.03581E+000	5.77068E-002	0.00000E+000	1.03700E+000	-9.08548E-005	11	...........	-327.56
	5636	2818.5	1.08674E+000	7.72951E-002	0.00000E+000	1.08800E+000	-9.21214E-005	11	...........	-327.56
	5687	2844	1.13761E+000	1.13965E-001	0.00000E+000	1.13900E+000	-9.20548E-005	11	...........	-327.56
	5738	2869.5	1.18849E+000	1.60837E-001	0.00000E+000	1.19000E+000	-9.18548E-005	11	...........	-327.56
	5789	2895	1.23939E+000	2.15084E-001	0.00000E+000	1.24100E+000	-8.96881E-005	11	...........	-327.56
	5840	2920.5	1.29054E+000	2.78585E-001	0.00000E+000	1.29200E+000	-9.37548E-005	12	...........	-327.56
	5891	2946	1.34142E+000	3.54262E-001	0.00000E+000	1.34300E+000	-8.78548E-005	12	...........	-327.56
[...]
	9087	4544	-4.60615E-001	5.20904E-002	0.00000E+000	-4.61000E-001	-9.01548E-005	11	...........	-327.56
	9113	4557	-4.34688E-001	8.97386E-002	0.00000E+000	-4.35000E-001	-9.22881E-005	11	...........	-327.56
	9139	4570	-4.08775E-001	1.12584E-001	0.00000E+000	-4.09000E-001	-8.91881E-005	11	...........	-327.56
	9165	4583	-3.82770E-001	1.18776E-001	0.00000E+000	-3.83000E-001	-9.11214E-005	11	...........	-327.56
	9191	4596	-3.56775E-001	1.10737E-001	0.00000E+000	-3.57000E-001	-9.46214E-005	11	...........	-327.56
	9217	4609	-3.30767E-001	9.96538E-002	0.00000E+000	-3.31000E-001	-9.25548E-005	11	...........	-327.56
	9243	4622	-3.04795E-001	8.20342E-002	0.00000E+000	-3.05000E-001	-9.44548E-005	11	...........	-327.56
	9269	4635	-2.78782E-001	6.51945E-002	0.00000E+000	-2.79000E-001	-9.42548E-005	11	...........	-327.56
	9295	4648	-2.52804E-001	5.73061E-002	0.00000E+000	-2.53000E-001	-9.48548E-005	11	...........	-327.56
	9321	4661	-2.26774E-001	4.90827E-002	0.00000E+000	-2.27000E-001	-9.60548E-005	11	...........	-327.56
	9347	4674	-2.00809E-001	4.05128E-002	0.00000E+000	-2.01000E-001	-9.20881E-005	11	...........	-327.56
	9373	4687	-1.74817E-001	4.21585E-002	0.00000E+000	-1.75000E-001	-9.17548E-005	11	...........	-327.56
	9399	4700	-1.48845E-001	4.66545E-002	0.00000E+000	-1.49000E-001	-9.78214E-005	11	...........	-327.56
	9425	4713	-1.22853E-001	4.89005E-002	0.00000E+000	-1.23000E-001	-9.37881E-005	11	...........	-327.56
	9451	4726	-9.69203E-002	5.36360E-002	0.00000E+000	-9.70000E-002	-9.07214E-005	11	...........	-327.56
	9477	4739	-7.09515E-002	5.80068E-002	0.00000E+000	-7.10000E-002	-9.11548E-005	11	...........	-327.56
	9503	4752	-4.49590E-002	6.23459E-002	0.00000E+000	-4.50000E-002	-9.31214E-005	11	...........	-327.56
	9529	4765	-1.90011E-002	7.45449E-002	0.00000E+000	-1.90000E-002	-9.16214E-005	11	...........	-327.56
	9555	4778	6.74047E-003	9.28199E-002	0.00000E+000	7.00003E-003	-9.05881E-005	11	...........	-327.56
	9581	4791	3.27031E-002	1.07566E-001	0.00000E+000	3.30000E-002	-9.11881E-005	11	...........	-327.56
	9607	4804	5.86269E-002	1.36204E-001	0.00000E+000	5.90000E-002	-9.67548E-005	11	...........	-327.56
	9633	4817	8.46095E-002	1.53065E-001	0.00000E+000	8.50000E-002	-9.43548E-005	11	...........	-327.56
	9659	4830	1.10519E-001	1.61651E-001	0.00000E+000	1.11000E-001	-9.53548E-005	11	...........	-327.56
	9685	4843	1.36479E-001	1.77483E-001	0.00000E+000	1.37000E-001	-9.38214E-005	11	...........	-327.56
	9711	4856	1.62454E-001	1.83032E-001	0.00000E+000	1.63000E-001	-9.60548E-005	11	...........	-327.56
	9737	4869	1.88459E-001	1.69157E-001	0.00000E+000	1.89000E-001	-9.06214E-005	11	...........	-327.56
	9763	4882	2.14422E-001	1.67244E-001	0.00000E+000	2.15000E-001	-9.57548E-005	11	...........	-327.56
	9789	4895	2.40407E-001	1.76609E-001	0.00000E+000	2.41000E-001	-9.45214E-005	11	...........	-327.56
	9815	4908	2.66384E-001	1.68344E-001	0.00000E+000	2.67000E-001	-9.04548E-005	11	...........	-327.56
	9841	4921	2.92348E-001	1.72494E-001	0.00000E+000	2.93000E-001	-9.27214E-005	11	...........	-327.56
	9867	4934	3.18303E-001	1.77022E-001	0.00000E+000	3.19000E-001	-9.36214E-005	11	...........	-327.56
	9893	4947	3.44279E-001	1.85587E-001	0.00000E+000	3.45000E-001	-9.22881E-005	11	...........	-327.56
	9919	4960	3.70222E-001	2.03228E-001	0.00000E+000	3.71000E-001	-8.81548E-005	11	...........	-327.56
	9945	4973	3.96155E-001	2.23975E-001	0.00000E+000	3.97000E-001	-9.28881E-005	11	...........	-327.56
	9971	4986	4.22194E-001	2.01089E-001	0.00000E+000	4.23000E-001	-9.19548E-005	11	...........	-327.56
	9997	4999	4.48164E-001	1.72104E-001	0.00000E+000	4.49000E-001	-9.12214E-005	11	...........	-327.56
	10023	5012	4.74125E-001	1.61118E-001	0.00000E+000	4.75000E-001	-8.92881E-005	11	...........	-327.56
	10049	5025	5.00129E-001	1.46353E-001	0.00000E+000	5.01000E-001	-9.58548E-005	11	...........	-327.56
	10075	5038	5.26164E-001	1.29663E-001	0.00000E+000	5.27000E-001	-9.58214E-005	11	...........	-327.56
	10101	5051	5.52113E-001	1.14608E-001	0.00000E+000	5.53000E-001	-9.63214E-005	11	...........	-327.56
	10127	5064	5.78146E-001	1.01327E-001	0.00000E+000	5.79000E-001	-9.40881E-005	11	...........	-327.56
	10153	5077	6.04153E-001	9.02356E-002	0.00000E+000	6.05000E-001	-9.40214E-005	11	...........	-327.56
	10179	5090	6.30175E-001	8.13351E-002	0.00000E+000	6.31000E-001	-9.35548E-005	11	...........	-327.56
	10205	5103	6.56122E-001	7.45205E-002	0.00000E+000	6.57000E-001	-9.22881E-005	11	...........	-327.56
	10231	5116	6.82107E-001	6.95055E-002	0.00000E+000	6.83000E-001	-9.50881E-005	11	...........	-327.56
	10257	5129	7.08120E-001	6.55737E-002	0.00000E+000	7.09000E-001	-9.62881E-005	11	...........	-327.56
	10283	5142	7.34069E-001	6.25173E-002	0.00000E+000	7.35000E-001	-9.58214E-005	11	...........	-327.56
	10309	5155	7.60006E-001	5.99713E-002	0.00000E+000	7.61000E-001	-9.30881E-005	11	...........	-327.56
	10335	5168	7.86014E-001	5.79386E-002	0.00000E+000	7.87000E-001	-9.52548E-005	11	...........	-327.56
	10361	5181	8.12018E-001	5.59744E-002	0.00000E+000	8.13000E-001	-9.66214E-005	11	...........	-327.56
	10387	5194	8.37959E-001	5.44894E-002	0.00000E+000	8.39000E-001	-9.61881E-005	11	...........	-327.56
	10413	5207	8.63950E-001	5.31077E-002	0.00000E+000	8.65000E-001	-9.71214E-005	11	...........	-327.56
	10439	5220	8.89927E-001	5.18880E-002	0.00000E+000	8.91000E-001	-9.06548E-005	11	...........	-327.56
	10465	5233	9.15911E-001	5.06409E-002	0.00000E+000	9.17000E-001	-9.35548E-005	11	...........	-327.56
	10491	5246	9.41858E-001	4.93754E-002	0.00000E+000	9.43000E-001	-9.01881E-005	11	...........	-327.56
	10517	5259	9.67916E-001	4.81444E-002	0.00000E+000	9.69000E-001	-9.50214E-005	11	...........	-327.56
	10543	5272	9.93849E-001	4.80909E-002	0.00000E+000	9.95000E-001	-9.61214E-005	11	...........	-327.56
	10569	5285	1.01984E+000	5.01462E-002	0.00000E+000	1.02100E+000	-9.09881E-005	11	...........	-327.56
	10595	5298	1.04579E+000	5.37591E-002	0.00000E+000	1.04700E+000	-9.48214E-005	11	...........	-327.56
	10621	5311	1.07178E+000	5.88182E-002	0.00000E+000	1.07300E+000	-8.78881E-005	11	...........	-327.56
	10647	5324	1.09773E+000	6.46779E-002	0.00000E+000	1.09900E+000	-9.42548E-005	11	...........	-327.56
	10673	5337	1.12372E+000	6.97098E-002	0.00000E+000	1.12500E+000	-9.58214E-005	11	...........	-327.56
	10699	5350	1.14964E+000	7.18720E-002	0.00000E+000	1.15100E+000	-9.43548E-005	11	...........	-327.56
	10725	5363	1.17562E+000	7.07658E-002	0.00000E+000	1.17700E+000	-9.23548E-005	11	...........	-327.56
	10751	5376	1.20158E+000	7.08041E-002	0.00000E+000	1.20300E+000	-9.40214E-005	11	...........	-327.56
	10777	5389	1.22759E+000	7.87781E-002	0.00000E+000	1.22900E+000	-9.23881E-005	11	...........	-327.56
	10803	5402	1.25353E+000	9.98457E-002	0.00000E+000	1.25500E+000	-8.96881E-005	11	...........	-327.56
	10829	5415	1.27946E+000	1.33315E-001	0.00000E+000	1.28100E+000	-8.93214E-005	11	...........	-327.56
	10855	5428	1.30539E+000	1.78735E-001	0.00000E+000	1.30700E+000	-9.35548E-005	11	...........	-327.56
	10881	5441	1.33123E+000	2.29319E-001	0.00000E+000	1.33300E+000	-9.15881E-005	11	...........	-327.56
	10907	5454	1.35742E+000	2.86455E-001	0.00000E+000	1.35900E+000	-9.19548E-005	12	...........	-327.56
	10933	5467	1.38336E+000	3.47057E-001	0.00000E+000	1.38500E+000	-9.23881E-005	12	...........	-327.56
	10959	5480	1.40932E+000	4.12868E-001	0.00000E+000	1.41100E+000	-9.48881E-005	12	...........	-327.56
	10985	5493	1.43522E+000	4.81364E-001	0.00000E+000	1.43700E+000	-9.39214E-005	12	...........	-327.56
	11011	5506	1.46118E+000	5.49890E-001	0.00000E+000	1.46300E+000	-9.32548E-005	12	...........	-327.56
	11037	5519	1.48713E+000	6.25623E-001	0.00000E+000	1.48900E+000	-9.44548E-005	12	...........	-327.56
	11063	5532	1.51306E+000	6.87666E-001	0.00000E+000	1.51500E+000	-9.39548E-005	12	...........	-327.56
	11089	5545	1.53898E+000	7.53542E-001	0.00000E+000	1.54100E+000	-9.26881E-005	12	...........	-327.56
	11115	5558	1.56490E+000	8.24841E-001	0.00000E+000	1.56700E+000	-9.12881E-005	12	...........	-327.56
	11141	5571	1.59083E+000	8.96005E-001	0.00000E+000	1.59300E+000	-9.14548E-005	12	...........	-327.56
	11167	5584	1.61678E+000	9.63511E-001	0.00000E+000	1.61900E+000	-9.29214E-005	12	...........	-327.56
	11193	5597	1.64270E+000	1.04643E+000	0.00000E+000	1.64500E+000	-9.27881E-005	12	...........	-327.56
	11219	5610	1.66867E+000	1.11521E+000	0.00000E+000	1.67100E+000	-9.34548E-005	12	...........	-327.56
	11245	5623	1.69460E+000	1.19160E+000	0.00000E+000	1.69700E+000	-9.54214E-005	12	...........	-327.56
	11248	5624.5	1.69758E+000	1.20623E+000	0.00000E+000	1.70000E+000	-9.50881E-005	12	...........	-327.56