File: testing/data/240902_03_MCL13_cswWE_CV2_750C_CO2.DTA
EXPLAIN
TAG	CV
TITLE	LABEL	Cyclic Voltammetry	Test Identifier
DATE	LABEL	9/2/2024	Date
TIME	LABEL	16:19:50	Time
NOTES	NOTES	5	Notes...
	cswWE - carbon steel wire
cspWE - carbon steel plate 2x2 tapered

Carbon steel plate counter electrode
Carbon steel wire reference electrode
PSTAT	PSTAT	REF3000-48128	Potentiostat
VINIT	POTEN	0.00000E+000	T	Initial E (V)
VLIMIT1	POTEN	1.70000E+000	F	Scan Limit 1 (V)
VLIMIT2	POTEN	-4.00000E-001	F	Scan Limit 2 (V)
VFINAL	POTEN	1.70000E+000	F	Final E (V)
SCANRATE	QUANT	2.00000E+000	Scan Rate (mV/s)
STEPSIZE	QUANT	1.00000E+000	Step Size (mV)
CYCLES	IQUANT	2	Cycles (#)
IMODE	SELECTOR	0	I/E Range Mode
IRANGE	QUANT	3.00000E-001	Max Current (mA)
AREA	QUANT	1.00000E+000	Sample Area (cm^2)
EQDELAY	QUANT	0.00000E+000	Equil. Time (s)
IRCOMP	SELECTOR	0	IRComp
PFCOR	QUANT	5.00000E+001	PF Corr. (ohm)
SAMPLINGMODE	SELECTOR	1	Sampling Mode
EOC	QUANT	-0.0705966	Open Circuit (V)
ELECTRODETYPE	SELECTOR	0	Electrode Type
STRIPPING	TOGGLE	F	Used for Stripping
SEQUENCER	TOGGLE	TRUE	Run as Sequence
PSTATMODEL	IQUANT	5	Pstat Model
PSTATSECTION	LABEL	REF3000-48128	Pstat Section
PSTATSERIALNO	LABEL	48128	Pstat Serial Number
CTRLMODE	IQUANT	1	Control Mode
ELECTROMETER	IQUANT	0	RE=0 or CS=1
IESTAB	IQUANT	2	I/E Stability
CASPEED	IQUANT	4	Control Amp Speed
CONVENTION	IQUANT	1	Current Convention
ICHRANGE	IQUANT	2	Ich Range
ICHRANGEMODE	TOGGLE	F	Ich Auto Range
ICHOFFSETENABLE	TOGGLE	F	Ich Offset Enable
ICHOFFSET	QUANT	0	Ich Offset (V)
ICHFILTER	IQUANT	3	Ich Filter
VCHRANGE	IQUANT	2	Vch Range
VCHRANGEMODE	TOGGLE	F	Vch Auto Range
VCHOFFSETENABLE	TOGGLE	F	Vch Offset Enable
VCHOFFSET	QUANT	0	Vch Offset (V)
VCHFILTER	IQUANT	3	Vch Filter
ACHRANGE	IQUANT	2	Ach Range
ACHOFFSETENABLE	TOGGLE	F	Ach Offset Enable
ACHOFFSET	QUANT	0	Ach Offset (V)
ACHFILTER	IQUANT	1	Ach Filter
IERANGELOWERLIMIT	IQUANT	2	I/E Range Lower Limit
IERANGEMODE	TOGGLE	T	I/E AutoRange
IERANGE	IQUANT	9	I/E Range
POSFEEDENABLE	TOGGLE	F	Positive Feedback IR Comp
POSFEEDRESISTANCE	QUANT	0	Positive Feedback Resistance (ohm)
ACHSELECT	IQUANT	4	Ach Select
SENSECABLEID	IQUANT	14	Sense Cable ID
PWRCABLEID	IQUANT	7	Power Cable ID
DCCALDATE	LABEL	8/16/2024	DC Calibration Date
ACCALDATE	LABEL	8/16/2024	AC Calibration Date
THERMOSELECT	IQUANT	1	Thermo Select
FRAMEWORKVERSION	LABEL	7.10.3	Framework Version
INSTRUMENTVERSION	LABEL	4.91	Instrument Version
COMMVERSION	LABEL	5.10	Communications Version
CPUPLDVERSION	LABEL	6.00	CPU PLD Version
CTRLPLDVERSION	LABEL	3.21	CTRL PLD Version
PSTATPLDVERSION	LABEL	0.00	PSTAT PLD Version
COMPLIANCEVOLTAGE	IQUANT	0	Compliance Voltage
CURVE1	TABLE
	Pt	T	Vf	Im	Vu	Sig	Ach	IERange	Over	Temp
	#	s	V vs. Ref.	A	V	V	V	#	bits	deg C
	0	0.5	-7.04680E-002	-1.67464E-006	0.00000E+000	-7.06000E-002	-9.18214E-005	9	...........	-327.56
	39	20	-3.16762E-002	1.02059E-003	0.00000E+000	-3.15999E-002	-9.47881E-005	9	...........	-327.56
	78	39.5	7.21270E-003	2.80951E-003	0.00000E+000	7.40004E-003	-1.08988E-004	10	...........	-327.56
	117	59	4.61917E-002	4.20108E-003	0.00000E+000	4.64001E-002	-1.04988E-004	10	...........	-327.56
	156	78.5	8.51636E-002	5.44121E-003	0.00000E+000	8.54000E-002	-1.00255E-004	10	...........	-327.56
	195	98	1.24014E-001	5.57925E-003	0.00000E+000	1.24400E-001	-1.02288E-004	10	...........	-327.56
	234	117.5	1.63030E-001	9.14325E-003	0.00000E+000	1.63400E-001	-1.00455E-004	10	...........	-327.56
	273	137	2.01947E-001	9.98130E-003	0.00000E+000	2.02400E-001	-1.02521E-004	10	...........	-327.56
	312	156.5	2.40873E-001	1.40757E-002	0.00000E+000	2.41400E-001	-1.04355E-004	10	...........	-327.56
	351	176	2.79819E-001	1.59041E-002	0.00000E+000	2.80400E-001	-1.01021E-004	10	...........	-327.56
	390	195.5	3.18713E-001	1.93607E-002	0.00000E+000	3.19400E-001	-1.01521E-004	10	...........	-327.56
	429	215	3.57543E-001	2.75576E-002	0.00000E+000	3.58400E-001	-9.55881E-005	10	...........	-327.56
	468	234.5	3.96831E-001	3.58311E-002	0.00000E+000	3.97400E-001	-1.02888E-004	11	...........	-327.56
	507	254	4.35803E-001	3.53760E-002	0.00000E+000	4.36400E-001	-1.00521E-004	11	...........	-327.56
	546	273.5	4.74467E-001	2.34845E-002	0.00000E+000	4.75400E-001	-9.89214E-005	10	...........	-327.56
	585	293	5.13561E-001	1.66407E-002	0.00000E+000	5.14400E-001	-1.02155E-004	10	...........	-327.56
	624	312.5	5.52539E-001	1.37170E-002	0.00000E+000	5.53400E-001	-1.01921E-004	10	...........	-327.56
	663	332	5.91561E-001	1.18628E-002	0.00000E+000	5.92400E-001	-9.78548E-005	10	...........	-327.56
	702	351.5	6.30479E-001	1.09224E-002	0.00000E+000	6.31400E-001	-1.01221E-004	10	...........	-327.56
	741	371	6.69532E-001	1.04097E-002	0.00000E+000	6.70400E-001	-1.00588E-004	10	...........	-327.56
	780	390.5	7.08429E-001	1.18550E-002	0.00000E+000	7.09400E-001	-9.98881E-005	10	...........	-327.56
	819	410	7.47444E-001	1.02987E-002	0.00000E+000	7.48400E-001	-9.75548E-005	10	...........	-327.56
	858	429.5	7.86343E-001	1.06634E-002	0.00000E+000	7.87400E-001	-9.73548E-005	10	...........	-327.56
	897	449	8.25326E-001	1.08742E-002	0.00000E+000	8.26400E-001	-9.83881E-005	10	...........	-327.56
	936	468.5	8.64271E-001	1.12652E-002	0.00000E+000	8.65400E-001	-9.65214E-005	10	...........	-327.56
	975	488	9.03248E-001	1.21006E-002	0.00000E+000	9.04400E-001	-9.76548E-005	10	...........	-327.56
	1014	507.5	9.42169E-001	1.30343E-002	0.00000E+000	9.43400E-001	-9.75548E-005	10	...........	-327.56
	1053	527	9.81142E-001	1.54699E-002	0.00000E+000	9.82400E-001	-9.95214E-005	10	...........	-327.56
	1092	546.5	1.01999E+000	2.01925E-002	0.00000E+000	1.02140E+000	-9.67881E-005	10	...........	-327.56
	1131	566	1.05922E+000	2.71202E-002	0.00000E+000	1.06040E+000	-9.90548E-005	11	...........	-327.56
	1170	585.5	1.09813E+000	2.51560E-002	0.00000E+000	1.09940E+000	-9.78214E-005	11	...........	-327.56
	1209	605	1.13709E+000	2.72361E-002	0.00000E+000	1.13840E+000	-1.01055E-004	11	...........	-327.56
	1248	624.5	1.17600E+000	3.52899E-002	0.00000E+000	1.17740E+000	-9.85881E-005	11	...........	-327.56
	1287	644	1.21503E+000	5.11225E-002	0.00000E+000	1.21640E+000	-9.73214E-005	11	...........	-327.56
	1326	663.5	1.25392E+000	8.03031E-002	0.00000E+000	1.25540E+000	-9.26214E-005	11	...........	-327.56
	1365	683	1.29283E+000	1.34377E-001	0.00000E+000	1.29440E+000	-9.49548E-005	11	...........	-327.56
	1404	702.5	1.33161E+000	2.06156E-001	0.00000E+000	1.33340E+000	-9.36881E-005	11	...........	-327.56
	1443	722	1.37070E+000	2.88996E-001	0.00000E+000	1.37240E+000	-1.00955E-004	12	...........	-327.56
	1482	741.5	1.40969E+000	3.77550E-001	0.00000E+000	1.41140E+000	-1.04255E-004	12	...........	-327.56
	1521	761	1.44852E+000	4.69944E-001	0.00000E+000	1.45040E+000	-9.77881E-005	12	...........	-327.56
	1560	780.5	1.48747E+000	5.64520E-001	0.00000E+000	1.48940E+000	-9.99214E-005	12	...........	-327.56
	1599	800	1.52635E+000	6.61153E-001	0.00000E+000	1.52840E+000	-9.87214E-005	12	...........	-327.56
	1638	819.5	1.56527E+000	7.61723E-001	0.00000E+000	1.56740E+000	-9.45214E-005	12	...........	-327.56
	1677	839	1.60414E+000	8.62673E-001	0.00000E+000	1.60640E+000	-1.00488E-004	12	...........	-327.56
	1716	858.5	1.64310E+000	9.52645E-001	0.00000E+000	1.64540E+000	-1.00821E-004	12	...........	-327.56
	1755	878	1.68195E+000	1.05445E+000	0.00000E+000	1.68440E+000	-9.91214E-005	12	...........	-327.56
	1794	897.5	1.67505E+000	1.03777E+000	0.00000E+000	1.67740E+000	-9.38214E-005	12	...........	-327.56
	1833	917	1.63606E+000	9.49425E-001	0.00000E+000	1.63840E+000	-9.92214E-005	12	...........	-327.56
	1872	936.5	1.59719E+000	8.52975E-001	0.00000E+000	1.59940E+000	-9.52548E-005	12	...........	-327.56
	1911	956	1.55826E+000	7.65252E-001	0.00000E+000	1.56040E+000	-9.98881E-005	12	...........	-327.56
	1950	975.5	1.51939E+000	6.75954E-001	0.00000E+000	1.52140E+000	-9.88548E-005	12	...........	-327.56
	1989	995	1.48043E+000	5.92989E-001	0.00000E+000	1.48240E+000	-9.65548E-005	12	...........	-327.56
	2028	1014.5	1.44156E+000	5.08237E-001	0.00000E+000	1.44340E+000	-9.69214E-005	12	...........	-327.56
	2067	1034	1.40262E+000	4.30002E-001	0.00000E+000	1.40440E+000	-9.67881E-005	12	...........	-327.56
	2106	1053.5	1.36375E+000	3.46302E-001	0.00000E+000	1.36540E+000	-9.16881E-005	12	...........	-327.56
	2145	1073	1.32478E+000	2.69938E-001	0.00000E+000	1.32640E+000	-9.04881E-005	12	...........	-327.56
	2184	1092.5	1.28573E+000	2.01082E-001	0.00000E+000	1.28740E+000	-9.13214E-005	11	...........	-327.56
	2223	1112	1.24679E+000	1.38854E-001	0.00000E+000	1.24840E+000	-8.93548E-005	11	...........	-327.56
	2262	1131.5	1.20794E+000	9.11748E-002	0.00000E+000	1.20940E+000	-9.15881E-005	11	...........	-327.56
	2301	1151	1.16898E+000	5.94891E-002	0.00000E+000	1.17040E+000	-9.56548E-005	11	...........	-327.56
	2340	1170.5	1.13010E+000	3.75138E-002	0.00000E+000	1.13140E+000	-9.14214E-005	11	...........	-327.56
	2379	1190	1.09113E+000	2.42870E-002	0.00000E+000	1.09240E+000	-9.56214E-005	11	...........	-327.56
	2418	1209.5	1.05202E+000	1.80947E-002	0.00000E+000	1.05340E+000	-9.45881E-005	10	...........	-327.56
	2457	1229	1.01302E+000	1.53462E-002	0.00000E+000	1.01440E+000	-9.35548E-005	10	...........	-327.56
	2496	1248.5	9.74135E-001	1.39024E-002	0.00000E+000	9.75400E-001	-9.02881E-005	10	...........	-327.56
	2535	1268	9.35090E-001	1.34741E-002	0.00000E+000	9.36400E-001	-8.98881E-005	10	...........	-327.56
	2574	1287.5	8.96220E-001	1.30461E-002	0.00000E+000	8.97400E-001	-8.75214E-005	10	...........	-327.56
	2613	1307	8.57292E-001	1.28148E-002	0.00000E+000	8.58400E-001	-9.10548E-005	10	...........	-327.56
	2652	1326.5	8.18307E-001	1.29135E-002	0.00000E+000	8.19400E-001	-9.05881E-005	10	...........	-327.56
	2691	1346	7.79377E-001	1.28166E-002	0.00000E+000	7.80400E-001	-9.02214E-005	10	...........	-327.56
	2730	1365.5	7.40362E-001	1.24026E-002	0.00000E+000	7.41400E-001	-9.08881E-005	10	...........	-327.56
	2769	1385	7.01485E-001	1.20070E-002	0.00000E+000	7.02400E-001	-8.79214E-005	10	...........	-327.56
	2808	1404.5	6.62467E-001	1.17754E-002	0.00000E+000	6.63400E-001	-9.19881E-005	10	...........	-327.56
	2847	1424	6.23530E-001	1.14501E-002	0.00000E+000	6.24400E-001	-9.16214E-005	10	...........	-327.56
	2886	1443.5	5.84550E-001	1.10546E-002	0.00000E+000	5.85400E-001	-9.25548E-005	10	...........	-327.56
	2925	1463	5.45619E-001	1.06046E-002	0.00000E+000	5.46400E-001	-9.11214E-005	10	...........	-327.56
	2964	1482.5	5.06654E-001	1.00170E-002	0.00000E+000	5.07400E-001	-9.34881E-005	10	...........	-327.56
	3003	1502	4.67740E-001	9.37913E-003	0.00000E+000	4.68400E-001	-8.94881E-005	10	...........	-327.56
	3042	1521.5	4.28738E-001	8.63495E-003	0.00000E+000	4.29400E-001	-9.46548E-005	10	...........	-327.56
	3081	1541	3.89814E-001	7.59929E-003	0.00000E+000	3.90400E-001	-9.18214E-005	10	...........	-327.56
	3120	1560.5	3.50797E-001	6.21864E-003	0.00000E+000	3.51400E-001	-9.17881E-005	10	...........	-327.56
	3159	1580	3.11912E-001	4.15215E-003	0.00000E+000	3.12400E-001	-9.15214E-005	10	...........	-327.56
	3198	1599.5	2.72680E-001	2.23942E-003	0.00000E+000	2.73400E-001	-8.80881E-005	9	...........	-327.56
	3237	1619	2.33897E-001	1.42779E-003	0.00000E+000	2.34400E-001	-9.17214E-005	9	...........	-327.56
	3276	1638.5	1.94968E-001	7.61158E-004	0.00000E+000	1.95400E-001	-9.31548E-005	9	...........	-327.56
	3315	1658	1.56178E-001	-4.25842E-004	0.00000E+000	1.56400E-001	-9.60548E-005	9	...........	-327.56
	3354	1677.5	1.17285E-001	-1.67993E-003	0.00000E+000	1.17400E-001	-9.47548E-005	9	...........	-327.56
	3393	1697	7.85077E-002	-2.32650E-003	0.00000E+000	7.84001E-002	-9.05548E-005	9	...........	-327.56
	3432	1716.5	3.94801E-002	-2.49229E-003	0.00000E+000	3.94000E-002	-8.29214E-005	9	...........	-327.56
	3471	1736	5.76919E-004	-2.61830E-003	0.00000E+000	4.00066E-004	-8.14881E-005	9	...........	-327.56
	3510	1755.5	-3.84581E-002	-2.84133E-003	0.00000E+000	-3.86000E-002	-9.07214E-005	10	...........	-327.56
	3549	1775	-7.74640E-002	-3.31139E-003	0.00000E+000	-7.75999E-002	-9.43881E-005	10	...........	-327.56
	3588	1794.5	-1.16346E-001	-3.78987E-003	0.00000E+000	-1.16600E-001	-9.35881E-005	10	...........	-327.56
	3627	1814	-1.55323E-001	-4.10050E-003	0.00000E+000	-1.55600E-001	-9.70214E-005	10	...........	-327.56
	3666	1833.5	-1.94288E-001	-4.67061E-003	0.00000E+000	-1.94600E-001	-9.36548E-005	10	...........	-327.56
	3705	1853	-2.33266E-001	-5.51185E-003	0.00000E+000	-2.33600E-001	-8.97881E-005	10	...........	-327.56
	3744	1872.5	-2.72176E-001	-7.13064E-003	0.00000E+000	-2.72600E-001	-8.86548E-005	10	...........	-327.56
	3783	1892	-3.11098E-001	-1.09837E-002	0.00000E+000	-3.11600E-001	-9.58881E-005	10	...........	-327.56
	3822	1911.5	-3.49931E-001	-1.92461E-002	0.00000E+000	-3.50600E-001	-8.87881E-005	10	...........	-327.56
	3861	1931	-3.89137E-001	-3.59547E-002	0.00000E+000	-3.89600E-001	-9.35881E-005	11	...........	-327.56
	3871	1936	-3.99066E-001	-4.32536E-002	0.00000E+000	-3.99600E-001	-9.45881E-005	11	...........	-327.56
CURVE2	TABLE
	Pt	T	Vf	Im	Vu	Sig	Ach	IERange	Over	Temp
	#	s	V vs. Ref.	A	V	V	V	#	bits	deg C
	3872	1936.5	-3.98476E-001	-4.22315E-002	0.00000E+000	-3.99000E-001	-9.30548E-005	11	...........	-327.56
	3915	1958	-3.55546E-001	-2.85664E-002	0.00000E+000	-3.56000E-001	-9.37881E-005	11	...........	-327.56
	3958	1979.5	-3.12397E-001	-2.10131E-002	0.00000E+000	-3.13000E-001	-8.77881E-005	10	...........	-327.56
	4001	2001	-2.69507E-001	-1.31534E-002	0.00000E+000	-2.70000E-001	-9.43548E-005	10	...........	-327.56
	4044	2022.5	-2.26625E-001	-6.36654E-003	0.00000E+000	-2.27000E-001	-9.34214E-005	10	...........	-327.56
	4087	2044	-1.83666E-001	-9.69224E-004	0.00000E+000	-1.84000E-001	-9.66881E-005	9	...........	-327.56
	4130	2065.5	-1.40834E-001	3.74991E-003	0.00000E+000	-1.41000E-001	-9.45548E-005	10	...........	-327.56
	4173	2087	-9.79544E-002	6.86915E-003	0.00000E+000	-9.79999E-002	-9.28214E-005	10	...........	-327.56
	4216	2108.5	-5.50170E-002	8.43703E-003	0.00000E+000	-5.49999E-002	-9.60881E-005	10	...........	-327.56
	4259	2130	-1.21394E-002	1.12522E-002	0.00000E+000	-1.20000E-002	-9.44214E-005	10	...........	-327.56
	4302	2151.5	3.06814E-002	1.47289E-002	0.00000E+000	3.10001E-002	-9.32548E-005	10	...........	-327.56
	4345	2173	7.35067E-002	2.25391E-002	0.00000E+000	7.40001E-002	-9.30881E-005	10	...........	-327.56
	4388	2194.5	1.16349E-001	2.59124E-002	0.00000E+000	1.17000E-001	-8.81548E-005	10	...........	-327.56
	4431	2216	1.59691E-001	2.75149E-002	0.00000E+000	1.60000E-001	-8.99881E-005	11	...........	-327.56
	4474	2237.5	2.02623E-001	2.89701E-002	0.00000E+000	2.03000E-001	-9.79214E-005	11	...........	-327.56
	4517	2259	2.45520E-001	3.08798E-002	0.00000E+000	2.46000E-001	-9.32214E-005	11	...........	-327.56
	4560	2280.5	2.88565E-001	3.46327E-002	0.00000E+000	2.89000E-001	-9.23214E-005	11	...........	-327.56
	4603	2302	3.31447E-001	3.98044E-002	0.00000E+000	3.32000E-001	-9.17214E-005	11	...........	-327.56
	4646	2323.5	3.74346E-001	4.92521E-002	0.00000E+000	3.75000E-001	-9.62214E-005	11	...........	-327.56
	4689	2345	4.17429E-001	5.13171E-002	0.00000E+000	4.18000E-001	-9.63214E-005	11	...........	-327.56
	4732	2366.5	4.60351E-001	3.64661E-002	0.00000E+000	4.61000E-001	-9.21214E-005	11	...........	-327.56
	4775	2388	5.03345E-001	2.51583E-002	0.00000E+000	5.04000E-001	-9.33881E-005	11	...........	-327.56
	4818	2409.5	5.46107E-001	2.05488E-002	0.00000E+000	5.47000E-001	-9.34548E-005	10	...........	-327.56
	4861	2431	5.89077E-001	1.77507E-002	0.00000E+000	5.90000E-001	-9.03881E-005	10	...........	-327.56
	4904	2452.5	6.31998E-001	1.56016E-002	0.00000E+000	6.33000E-001	-9.46214E-005	10	...........	-327.56
	4947	2474	6.75077E-001	1.41543E-002	0.00000E+000	6.76000E-001	-9.12881E-005	10	...........	-327.56
	4990	2495.5	7.17994E-001	1.29097E-002	0.00000E+000	7.19000E-001	-9.14548E-005	10	...........	-327.56
	5033	2517	7.60955E-001	1.21308E-002	0.00000E+000	7.62000E-001	-9.35548E-005	10	...........	-327.56
	5076	2538.5	8.03978E-001	1.16917E-002	0.00000E+000	8.05000E-001	-8.94214E-005	10	...........	-327.56
	5119	2560	8.46916E-001	1.15713E-002	0.00000E+000	8.48000E-001	-9.17881E-005	10	...........	-327.56
	5162	2581.5	8.89795E-001	1.46273E-002	0.00000E+000	8.91000E-001	-8.92548E-005	10	...........	-327.56
	5205	2603	9.32792E-001	1.22646E-002	0.00000E+000	9.34000E-001	-9.43214E-005	10	...........	-327.56
	5248	2624.5	9.75773E-001	1.28883E-002	0.00000E+000	9.77000E-001	-8.95214E-005	10	...........	-327.56
	5291	2646	1.01863E+000	1.67279E-002	0.00000E+000	1.02000E+000	-9.09881E-005	10	...........	-327.56
	5334	2667.5	1.06152E+000	2.40211E-002	0.00000E+000	1.06300E+000	-8.81214E-005	10	...........	-327.56
	5377	2689	1.10476E+000	3.20657E-002	0.00000E+000	1.10600E+000	-8.87881E-005	11	...........	-327.56
	5420	2710.5	1.14762E+000	4.49402E-002	0.00000E+000	1.14900E+000	-9.14214E-005	11	...........	-327.56
	5463	2732	1.19055E+000	6.53704E-002	0.00000E+000	1.19200E+000	-8.98214E-005	11	...........	-327.56
	5506	2753.5	1.23352E+000	9.94969E-002	0.00000E+000	1.23500E+000	-9.11214E-005	11	...........	-327.56
	5549	2775	1.27636E+000	1.59225E-001	0.00000E+000	1.27800E+000	-8.92548E-005	11	...........	-327.56
	5592	2796.5	1.31916E+000	2.37422E-001	0.00000E+000	1.32100E+000	-9.09881E-005	11	...........	-327.56
	5635	2818	1.36237E+000	3.28474E-001	0.00000E+000	1.36400E+000	-9.15548E-005	12	...........	-327.56
	5678	2839.5	1.40521E+000	4.25996E-001	0.00000E+000	1.40700E+000	-9.59881E-005	12	...........	-327.56
[...]
	8358	4179.5	-1.12973E-001	7.36407E-003	0.00000E+000	-1.13000E-001	-9.23881E-005	10	...........	-327.56
	8380	4190.5	-9.09781E-002	9.19522E-003	0.00000E+000	-9.10000E-002	-9.23881E-005	10	...........	-327.56
	8402	4201.5	-6.89760E-002	9.75824E-003	0.00000E+000	-6.89999E-002	-9.10548E-005	10	...........	-327.56
	8424	4212.5	-4.70354E-002	1.04732E-002	0.00000E+000	-4.69999E-002	-9.43548E-005	10	...........	-327.56
	8446	4223.5	-2.50712E-002	1.05803E-002	0.00000E+000	-2.50000E-002	-9.03548E-005	10	...........	-327.56
	8468	4234.5	-3.13376E-003	1.25528E-002	0.00000E+000	-2.99996E-003	-8.63881E-005	10	...........	-327.56
	8490	4245.5	1.86314E-002	1.37981E-002	0.00000E+000	1.90001E-002	-9.06548E-005	10	...........	-327.56
	8512	4256.5	4.06028E-002	1.33378E-002	0.00000E+000	4.10001E-002	-9.10881E-005	10	...........	-327.56
	8534	4267.5	6.26455E-002	1.56084E-002	0.00000E+000	6.30000E-002	-9.34548E-005	10	...........	-327.56
	8556	4278.5	8.46197E-002	1.72532E-002	0.00000E+000	8.50000E-002	-9.28548E-005	10	...........	-327.56
	8578	4289.5	1.06561E-001	1.63108E-002	0.00000E+000	1.07000E-001	-9.44214E-005	10	...........	-327.56
	8600	4300.5	1.28478E-001	1.74236E-002	0.00000E+000	1.29000E-001	-8.86548E-005	10	...........	-327.56
	8622	4311.5	1.50433E-001	1.96364E-002	0.00000E+000	1.51000E-001	-9.13881E-005	10	...........	-327.56
	8644	4322.5	1.72361E-001	2.14812E-002	0.00000E+000	1.73000E-001	-8.65548E-005	10	...........	-327.56
	8666	4333.5	1.94348E-001	2.26359E-002	0.00000E+000	1.95000E-001	-8.97548E-005	10	...........	-327.56
	8688	4344.5	2.16363E-001	2.40567E-002	0.00000E+000	2.17000E-001	-8.54214E-005	10	...........	-327.56
	8710	4355.5	2.38314E-001	2.57568E-002	0.00000E+000	2.39000E-001	-9.00881E-005	10	...........	-327.56
	8732	4366.5	2.60593E-001	2.72706E-002	0.00000E+000	2.61000E-001	-9.14548E-005	11	...........	-327.56
	8754	4377.5	2.82553E-001	2.83026E-002	0.00000E+000	2.83000E-001	-9.00214E-005	11	...........	-327.56
	8776	4388.5	3.04524E-001	3.00412E-002	0.00000E+000	3.05000E-001	-9.10881E-005	11	...........	-327.56
	8798	4399.5	3.26433E-001	3.27951E-002	0.00000E+000	3.27000E-001	-9.26548E-005	11	...........	-327.56
	8820	4410.5	3.48408E-001	3.56238E-002	0.00000E+000	3.49000E-001	-9.07548E-005	11	...........	-327.56
	8842	4421.5	3.70429E-001	4.01357E-002	0.00000E+000	3.71000E-001	-9.19214E-005	11	...........	-327.56
	8864	4432.5	3.92436E-001	4.42459E-002	0.00000E+000	3.93000E-001	-9.28881E-005	11	...........	-327.56
	8886	4443.5	4.14405E-001	4.51932E-002	0.00000E+000	4.15000E-001	-9.29881E-005	11	...........	-327.56
	8908	4454.5	4.36386E-001	4.22827E-002	0.00000E+000	4.37000E-001	-9.13548E-005	11	...........	-327.56
	8930	4465.5	4.58373E-001	3.68026E-002	0.00000E+000	4.59000E-001	-8.88548E-005	11	...........	-327.56
	8952	4476.5	4.80341E-001	3.18710E-002	0.00000E+000	4.81000E-001	-8.89214E-005	11	...........	-327.56
	8974	4487.5	5.02335E-001	2.84030E-002	0.00000E+000	5.03000E-001	-9.19548E-005	11	...........	-327.56
	8996	4498.5	5.24329E-001	2.56632E-002	0.00000E+000	5.25000E-001	-8.93548E-005	11	...........	-327.56
	9018	4509.5	5.46081E-001	2.30273E-002	0.00000E+000	5.47000E-001	-8.71881E-005	10	...........	-327.56
	9040	4520.5	5.68063E-001	2.12908E-002	0.00000E+000	5.69000E-001	-9.05548E-005	10	...........	-327.56
	9062	4531.5	5.90053E-001	2.08059E-002	0.00000E+000	5.91000E-001	-8.99881E-005	10	...........	-327.56
	9084	4542.5	6.12043E-001	1.88123E-002	0.00000E+000	6.13000E-001	-8.84214E-005	10	...........	-327.56
	9106	4553.5	6.33996E-001	1.74718E-002	0.00000E+000	6.35000E-001	-8.86214E-005	10	...........	-327.56
	9128	4564.5	6.55960E-001	1.60654E-002	0.00000E+000	6.57000E-001	-8.89548E-005	10	...........	-327.56
	9150	4575.5	6.78062E-001	1.50096E-002	0.00000E+000	6.79000E-001	-8.97214E-005	10	...........	-327.56
	9172	4586.5	7.00052E-001	1.40083E-002	0.00000E+000	7.01000E-001	-9.23881E-005	10	...........	-327.56
	9194	4597.5	7.22001E-001	1.34245E-002	0.00000E+000	7.23000E-001	-9.08214E-005	10	...........	-327.56
	9216	4608.5	7.43969E-001	1.26258E-002	0.00000E+000	7.45000E-001	-9.06548E-005	10	...........	-327.56
	9238	4619.5	7.65947E-001	1.21873E-002	0.00000E+000	7.67000E-001	-9.08214E-005	10	...........	-327.56
	9260	4630.5	7.87935E-001	1.16489E-002	0.00000E+000	7.89000E-001	-8.98881E-005	10	...........	-327.56
	9282	4641.5	8.09930E-001	1.13410E-002	0.00000E+000	8.11000E-001	-9.16214E-005	10	...........	-327.56
	9304	4652.5	8.31925E-001	1.09792E-002	0.00000E+000	8.33000E-001	-9.17548E-005	10	...........	-327.56
	9326	4663.5	8.53913E-001	1.07498E-002	0.00000E+000	8.55000E-001	-8.93881E-005	10	...........	-327.56
	9348	4674.5	8.75912E-001	1.06074E-002	0.00000E+000	8.77000E-001	-9.09214E-005	10	...........	-327.56
	9370	4685.5	8.97878E-001	1.06163E-002	0.00000E+000	8.99000E-001	-9.42214E-005	10	...........	-327.56
	9392	4696.5	9.19881E-001	1.05900E-002	0.00000E+000	9.21000E-001	-9.11548E-005	10	...........	-327.56
	9414	4707.5	9.41777E-001	1.07354E-002	0.00000E+000	9.43000E-001	-9.27214E-005	10	...........	-327.56
	9436	4718.5	9.63752E-001	1.10371E-002	0.00000E+000	9.65000E-001	-8.97214E-005	10	...........	-327.56
	9458	4729.5	9.85728E-001	1.14910E-002	0.00000E+000	9.87000E-001	-9.05214E-005	10	...........	-327.56
	9480	4740.5	1.00777E+000	1.25054E-002	0.00000E+000	1.00900E+000	-8.95214E-005	10	...........	-327.56
	9502	4751.5	1.02970E+000	1.42714E-002	0.00000E+000	1.03100E+000	-9.12214E-005	10	...........	-327.56
	9524	4762.5	1.05162E+000	1.72235E-002	0.00000E+000	1.05300E+000	-9.21881E-005	10	...........	-327.56
	9546	4773.5	1.07353E+000	2.26840E-002	0.00000E+000	1.07500E+000	-9.22881E-005	10	...........	-327.56
	9568	4784.5	1.09573E+000	3.05390E-002	0.00000E+000	1.09700E+000	-9.39881E-005	11	...........	-327.56
	9590	4795.5	1.11768E+000	4.01176E-002	0.00000E+000	1.11900E+000	-9.21881E-005	11	...........	-327.56
	9612	4806.5	1.13957E+000	5.28835E-002	0.00000E+000	1.14100E+000	-9.03881E-005	11	...........	-327.56
	9634	4817.5	1.16164E+000	7.00090E-002	0.00000E+000	1.16300E+000	-9.05881E-005	11	...........	-327.56
	9656	4828.5	1.18356E+000	8.99502E-002	0.00000E+000	1.18500E+000	-8.83881E-005	11	...........	-327.56
	9678	4839.5	1.20552E+000	1.12881E-001	0.00000E+000	1.20700E+000	-8.72881E-005	11	...........	-327.56
	9700	4850.5	1.22745E+000	1.34538E-001	0.00000E+000	1.22900E+000	-9.48214E-005	11	...........	-327.56
	9722	4861.5	1.24943E+000	1.58803E-001	0.00000E+000	1.25100E+000	-8.96548E-005	11	...........	-327.56
	9744	4872.5	1.27129E+000	1.90718E-001	0.00000E+000	1.27300E+000	-9.30548E-005	11	...........	-327.56
	9766	4883.5	1.29318E+000	2.28678E-001	0.00000E+000	1.29500E+000	-8.40214E-005	11	...........	-327.56
	9788	4894.5	1.31549E+000	2.71233E-001	0.00000E+000	1.31700E+000	-8.82548E-005	12	...........	-327.56
	9810	4905.5	1.33742E+000	3.17544E-001	0.00000E+000	1.33900E+000	-9.00214E-005	12	...........	-327.56
	9832	4916.5	1.35935E+000	3.65243E-001	0.00000E+000	1.36100E+000	-9.35548E-005	12	...........	-327.56
	9854	4927.5	1.38127E+000	4.18172E-001	0.00000E+000	1.38300E+000	-9.24214E-005	12	...........	-327.56
	9876	4938.5	1.40317E+000	4.74337E-001	0.00000E+000	1.40500E+000	-9.33548E-005	12	...........	-327.56
	9898	4949.5	1.42513E+000	5.29031E-001	0.00000E+000	1.42700E+000	-9.20214E-005	12	...........	-327.56
	9920	4960.5	1.44704E+000	5.85161E-001	0.00000E+000	1.44900E+000	-9.27548E-005	12	...........	-327.56
	9942	4971.5	1.46908E+000	6.37801E-001	0.00000E+000	1.47100E+000	-8.91881E-005	12	...........	-327.56
	9964	4982.5	1.49104E+000	6.92919E-001	0.00000E+000	1.49300E+000	-9.00881E-005	12	...........	-327.56
	9986	4993.5	1.51298E+000	7.48523E-001	0.00000E+000	1.51500E+000	-9.10881E-005	12	...........	-327.56
	10008	5004.5	1.53487E+000	8.09024E-001	0.00000E+000	1.53700E+000	-9.10214E-005	12	...........	-327.56
	10030	5015.5	1.55677E+000	8.68496E-001	0.00000E+000	1.55900E+000	-9.25881E-005	12	...........	-327.56
	10052	5026.5	1.57870E+000	9.23622E-001	0.00000E+000	1.58100E+000	-9.32214E-005	12	...........	-327.56
	10074	5037.5	1.60064E+000	9.79735E-001	0.00000E+000	1.60300E+000	-8.89214E-005	12	...........	-327.56
	10096	5048.5	1.62268E+000	1.04168E+000	0.00000E+000	1.62500E+000	-8.74214E-005	12	...........	-327.56
	10118	5059.5	1.64462E+000	1.09846E+000	0.00000E+000	1.64700E+000	-8.72548E-005	12	...........	-327.56
	10140	5070.5	1.66658E+000	1.16349E+000	0.00000E+000	1.66900E+000	-9.20548E-005	12	...........	-327.56
	10162	5081.5	1.68847E+000	1.22819E+000	0.00000E+000	1.69100E+000	-9.05214E-005	12	...........	-327.56
	10171	5086	1.69750E+000	1.25155E+000	0.00000E+000	1.70000E+000	-9.04214E-005	12	...........	-327.56