File: testing/data/240902_07_MCL13_cswWE_CV2_750C_CO2.DTA
EXPLAIN
TAG	CV
TITLE	LABEL	Cyclic Voltammetry	Test Identifier
DATE	LABEL	9/2/2024	Date
TIME	LABEL	22:32:45	Time
NOTES	NOTES	5	Notes...
	cswWE - carbon steel wire
cspWE - carbon steel plate 2x2 tapered

Carbon steel plate counter electrode
Carbon steel wire reference electrode
PSTAT	PSTAT	REF3000-48128	Potentiostat
VINIT	POTEN	0.00000E+000	T	Initial E (V)
VLIMIT1	POTEN	1.70000E+000	F	Scan Limit 1 (V)
VLIMIT2	POTEN	-1.20000E+000	F	Scan Limit 2 (V)
VFINAL	POTEN	1.70000E+000	F	Final E (V)
SCANRATE	QUANT	2.00000E+000	Scan Rate (mV/s)
STEPSIZE	QUANT	1.00000E+000	Step Size (mV)
CYCLES	IQUANT	2	Cycles (#)
IMODE	SELECTOR	0	I/E Range Mode
IRANGE	QUANT	3.00000E-001	Max Current (mA)
AREA	QUANT	1.00000E+000	Sample Area (cm^2)
EQDELAY	QUANT	0.00000E+000	Equil. Time (s)
IRCOMP	SELECTOR	0	IRComp
PFCOR	QUANT	5.00000E+001	PF Corr. (ohm)
SAMPLINGMODE	SELECTOR	1	Sampling Mode
EOC	QUANT	0.1259027	Open Circuit (V)
ELECTRODETYPE	SELECTOR	0	Electrode Type
STRIPPING	TOGGLE	F	Used for Stripping
SEQUENCER	TOGGLE	TRUE	Run as Sequence
PSTATMODEL	IQUANT	5	Pstat Model
PSTATSECTION	LABEL	REF3000-48128	Pstat Section
PSTATSERIALNO	LABEL	48128	Pstat Serial Number
CTRLMODE	IQUANT	1	Control Mode
ELECTROMETER	IQUANT	0	RE=0 or CS=1
IESTAB	IQUANT	2	I/E Stability
CASPEED	IQUANT	4	Control Amp Speed
CONVENTION	IQUANT	1	Current Convention
ICHRANGE	IQUANT	2	Ich Range
ICHRANGEMODE	TOGGLE	F	Ich Auto Range
ICHOFFSETENABLE	TOGGLE	F	Ich Offset Enable
ICHOFFSET	QUANT	0	Ich Offset (V)
ICHFILTER	IQUANT	3	Ich Filter
VCHRANGE	IQUANT	2	Vch Range
VCHRANGEMODE	TOGGLE	F	Vch Auto Range
VCHOFFSETENABLE	TOGGLE	F	Vch Offset Enable
VCHOFFSET	QUANT	0	Vch Offset (V)
VCHFILTER	IQUANT	3	Vch Filter
ACHRANGE	IQUANT	2	Ach Range
ACHOFFSETENABLE	TOGGLE	F	Ach Offset Enable
ACHOFFSET	QUANT	0	Ach Offset (V)
ACHFILTER	IQUANT	1	Ach Filter
IERANGELOWERLIMIT	IQUANT	2	I/E Range Lower Limit
IERANGEMODE	TOGGLE	T	I/E AutoRange
IERANGE	IQUANT	9	I/E Range
POSFEEDENABLE	TOGGLE	F	Positive Feedback IR Comp
POSFEEDRESISTANCE	QUANT	0	Positive Feedback Resistance (ohm)
ACHSELECT	IQUANT	4	Ach Select
SENSECABLEID	IQUANT	14	Sense Cable ID
PWRCABLEID	IQUANT	7	Power Cable ID
DCCALDATE	LABEL	8/16/2024	DC Calibration Date
ACCALDATE	LABEL	8/16/2024	AC Calibration Date
THERMOSELECT	IQUANT	1	Thermo Select
FRAMEWORKVERSION	LABEL	7.10.3	Framework Version
INSTRUMENTVERSION	LABEL	4.91	Instrument Version
COMMVERSION	LABEL	5.10	Communications Version
CPUPLDVERSION	LABEL	6.00	CPU PLD Version
CTRLPLDVERSION	LABEL	3.21	CTRL PLD Version
PSTATPLDVERSION	LABEL	0.00	PSTAT PLD Version
COMPLIANCEVOLTAGE	IQUANT	0	Compliance Voltage
CURVE1	TABLE
	Pt	T	Vf	Im	Vu	Sig	Ach	IERange	Over	Temp
	#	s	V vs. Ref.	A	V	V	V	#	bits	deg C
	0	0.5	1.25566E-001	5.92601E-004	0.00000E+000	1.25900E-001	-9.69548E-005	9	...........	-327.56
	46	23.5	1.71466E-001	1.05734E-002	0.00000E+000	1.71900E-001	-1.06221E-004	10	...........	-327.56
	92	46.5	2.17374E-001	1.86263E-002	0.00000E+000	2.17900E-001	-1.04188E-004	10	...........	-327.56
	138	69.5	2.63528E-001	2.76656E-002	0.00000E+000	2.63900E-001	-1.05655E-004	11	...........	-327.56
	184	92.5	3.09428E-001	3.82345E-002	0.00000E+000	3.09900E-001	-1.03288E-004	11	...........	-327.56
	230	115.5	3.55368E-001	4.72186E-002	0.00000E+000	3.55900E-001	-1.06921E-004	11	...........	-327.56
	276	138.5	4.01091E-001	2.17897E-002	0.00000E+000	4.01900E-001	-1.02221E-004	10	...........	-327.56
	322	161.5	4.47212E-001	1.64929E-002	0.00000E+000	4.47900E-001	-1.02355E-004	10	...........	-327.56
	368	184.5	4.93155E-001	1.82500E-002	0.00000E+000	4.93900E-001	-1.02821E-004	10	...........	-327.56
	414	207.5	5.39095E-001	1.91180E-002	0.00000E+000	5.39900E-001	-1.05655E-004	10	...........	-327.56
	460	230.5	5.85006E-001	1.89817E-002	0.00000E+000	5.85900E-001	-1.02188E-004	10	...........	-327.56
	506	253.5	6.30951E-001	1.83696E-002	0.00000E+000	6.31900E-001	-1.03088E-004	10	...........	-327.56
	552	276.5	6.77003E-001	1.76852E-002	0.00000E+000	6.77900E-001	-1.03988E-004	10	...........	-327.56
	598	299.5	7.22934E-001	1.69722E-002	0.00000E+000	7.23900E-001	-1.00455E-004	10	...........	-327.56
	644	322.5	7.68864E-001	1.65837E-002	0.00000E+000	7.69900E-001	-1.01921E-004	10	...........	-327.56
	690	345.5	8.14825E-001	1.63123E-002	0.00000E+000	8.15900E-001	-1.02055E-004	10	...........	-327.56
	736	368.5	8.60744E-001	1.63013E-002	0.00000E+000	8.61900E-001	-1.05288E-004	10	...........	-327.56
	782	391.5	9.06756E-001	1.70220E-002	0.00000E+000	9.07900E-001	-1.02755E-004	10	...........	-327.56
	828	414.5	9.52664E-001	2.01594E-002	0.00000E+000	9.53900E-001	-9.94548E-005	10	...........	-327.56
	874	437.5	9.98803E-001	2.83330E-002	0.00000E+000	9.99900E-001	-9.84881E-005	11	...........	-327.56
	920	460.5	1.04474E+000	4.01531E-002	0.00000E+000	1.04590E+000	-1.06155E-004	11	...........	-327.56
	966	483.5	1.09063E+000	4.85760E-002	0.00000E+000	1.09190E+000	-1.04188E-004	11	...........	-327.56
	1012	506.5	1.13668E+000	3.41409E-002	0.00000E+000	1.13790E+000	-1.00488E-004	11	...........	-327.56
	1058	529.5	1.18264E+000	3.16733E-002	0.00000E+000	1.18390E+000	-1.08421E-004	11	...........	-327.56
	1104	552.5	1.22856E+000	5.66939E-002	0.00000E+000	1.22990E+000	-1.05455E-004	11	...........	-327.56
	1150	575.5	1.27441E+000	1.03052E-001	0.00000E+000	1.27590E+000	-1.06088E-004	11	...........	-327.56
	1196	598.5	1.32022E+000	1.82498E-001	0.00000E+000	1.32190E+000	-1.04088E-004	11	...........	-327.56
	1242	621.5	1.36637E+000	2.90744E-001	0.00000E+000	1.36790E+000	-1.01921E-004	12	...........	-327.56
	1288	644.5	1.41225E+000	4.12184E-001	0.00000E+000	1.41390E+000	-1.04988E-004	12	...........	-327.56
	1334	667.5	1.45810E+000	5.21234E-001	0.00000E+000	1.45990E+000	-1.04921E-004	12	...........	-327.56
	1380	690.5	1.50396E+000	6.52703E-001	0.00000E+000	1.50590E+000	-1.02021E-004	12	...........	-327.56
	1426	713.5	1.54978E+000	7.87062E-001	0.00000E+000	1.55190E+000	-1.07521E-004	12	...........	-327.56
	1472	736.5	1.59576E+000	9.39670E-001	0.00000E+000	1.59790E+000	-1.04155E-004	12	...........	-327.56
	1518	759.5	1.64160E+000	1.07549E+000	0.00000E+000	1.64390E+000	-1.06221E-004	12	...........	-327.56
	1564	782.5	1.68750E+000	1.20446E+000	0.00000E+000	1.68990E+000	-1.01821E-004	12	...........	-327.56
	1610	805.5	1.66151E+000	1.16259E+000	0.00000E+000	1.66390E+000	-1.00888E-004	12	...........	-327.56
	1656	828.5	1.61564E+000	1.07435E+000	0.00000E+000	1.61790E+000	-1.03521E-004	12	...........	-327.56
	1702	851.5	1.56978E+000	9.50589E-001	0.00000E+000	1.57190E+000	-1.05155E-004	12	...........	-327.56
	1748	874.5	1.52381E+000	8.36327E-001	0.00000E+000	1.52590E+000	-1.04355E-004	12	...........	-327.56
	1794	897.5	1.47795E+000	7.13800E-001	0.00000E+000	1.47990E+000	-1.06255E-004	12	...........	-327.56
	1840	920.5	1.43211E+000	5.80914E-001	0.00000E+000	1.43390E+000	-1.04255E-004	12	...........	-327.56
	1886	943.5	1.38624E+000	4.66154E-001	0.00000E+000	1.38790E+000	-1.02788E-004	12	...........	-327.56
	1932	966.5	1.34034E+000	3.56603E-001	0.00000E+000	1.34190E+000	-1.01288E-004	12	...........	-327.56
	1978	989.5	1.29437E+000	2.53413E-001	0.00000E+000	1.29590E+000	-1.02055E-004	12	...........	-327.56
	2024	1012.5	1.24834E+000	1.62959E-001	0.00000E+000	1.24990E+000	-1.01055E-004	11	...........	-327.56
	2070	1035.5	1.20247E+000	1.01125E-001	0.00000E+000	1.20390E+000	-1.04288E-004	11	...........	-327.56
	2116	1058.5	1.15664E+000	5.86114E-002	0.00000E+000	1.15790E+000	-1.03021E-004	11	...........	-327.56
	2162	1081.5	1.11074E+000	3.18685E-002	0.00000E+000	1.11190E+000	-9.76881E-005	11	...........	-327.56
	2208	1104.5	1.06449E+000	1.99690E-002	0.00000E+000	1.06590E+000	-1.01155E-004	10	...........	-327.56
	2254	1127.5	1.01862E+000	1.56511E-002	0.00000E+000	1.01990E+000	-1.04288E-004	10	...........	-327.56
	2300	1150.5	9.72707E-001	1.47135E-002	0.00000E+000	9.73900E-001	-1.00788E-004	10	...........	-327.56
	2346	1173.5	9.26750E-001	1.43884E-002	0.00000E+000	9.27900E-001	-1.00555E-004	10	...........	-327.56
	2392	1196.5	8.80827E-001	1.39819E-002	0.00000E+000	8.81900E-001	-1.00155E-004	10	...........	-327.56
	2438	1219.5	8.34765E-001	1.52444E-002	0.00000E+000	8.35900E-001	-1.03755E-004	10	...........	-327.56
	2484	1242.5	7.88855E-001	1.43581E-002	0.00000E+000	7.89900E-001	-1.05621E-004	10	...........	-327.56
	2530	1265.5	7.42927E-001	1.42071E-002	0.00000E+000	7.43900E-001	-9.77881E-005	10	...........	-327.56
	2576	1288.5	6.97027E-001	1.34559E-002	0.00000E+000	6.97900E-001	-9.98548E-005	10	...........	-327.56
	2622	1311.5	6.51081E-001	1.30556E-002	0.00000E+000	6.51900E-001	-1.02521E-004	10	...........	-327.56
	2668	1334.5	6.05049E-001	1.24520E-002	0.00000E+000	6.05900E-001	-1.02588E-004	10	...........	-327.56
	2714	1357.5	5.59129E-001	1.13831E-002	0.00000E+000	5.59900E-001	-1.01955E-004	10	...........	-327.56
	2760	1380.5	5.13185E-001	9.65620E-003	0.00000E+000	5.13900E-001	-1.00455E-004	10	...........	-327.56
	2806	1403.5	4.67303E-001	8.25687E-003	0.00000E+000	4.67900E-001	-1.02655E-004	10	...........	-327.56
	2852	1426.5	4.21363E-001	6.70904E-003	0.00000E+000	4.21900E-001	-9.92214E-005	10	...........	-327.56
	2898	1449.5	3.75351E-001	4.88800E-003	0.00000E+000	3.75900E-001	-1.01921E-004	10	...........	-327.56
	2944	1472.5	3.29465E-001	2.59948E-003	0.00000E+000	3.29900E-001	-1.02255E-004	10	...........	-327.56
	2990	1495.5	2.83475E-001	6.47712E-004	0.00000E+000	2.83900E-001	-1.05855E-004	9	...........	-327.56
	3036	1518.5	2.37718E-001	-9.48027E-005	0.00000E+000	2.37900E-001	-1.01821E-004	8	...........	-327.56
	3082	1541.5	1.91753E-001	-9.10348E-004	0.00000E+000	1.91900E-001	-1.00755E-004	9	...........	-327.56
	3128	1564.5	1.45930E-001	-2.40568E-003	0.00000E+000	1.45900E-001	-9.83548E-005	9	...........	-327.56
	3174	1587.5	9.97716E-002	-4.15849E-003	0.00000E+000	9.99000E-002	-1.04755E-004	10	...........	-327.56
	3220	1610.5	5.38339E-002	-5.28262E-003	0.00000E+000	5.39000E-002	-1.05555E-004	10	...........	-327.56
	3266	1633.5	7.88404E-003	-5.70615E-003	0.00000E+000	7.90000E-003	-1.02188E-004	10	...........	-327.56
	3312	1656.5	-3.79761E-002	-6.67176E-003	0.00000E+000	-3.81000E-002	-1.02421E-004	10	...........	-327.56
	3358	1679.5	-8.38961E-002	-7.63069E-003	0.00000E+000	-8.41000E-002	-1.04855E-004	10	...........	-327.56
	3404	1702.5	-1.29788E-001	-7.02654E-003	0.00000E+000	-1.30100E-001	-1.02655E-004	10	...........	-327.56
	3450	1725.5	-1.75732E-001	-7.27518E-003	0.00000E+000	-1.76100E-001	-1.05888E-004	10	...........	-327.56
	3496	1748.5	-2.21671E-001	-8.33885E-003	0.00000E+000	-2.22100E-001	-1.05255E-004	10	...........	-327.56
	3542	1771.5	-2.67714E-001	-1.05547E-002	0.00000E+000	-2.68100E-001	-1.02855E-004	10	...........	-327.56
	3588	1794.5	-3.13560E-001	-1.60020E-002	0.00000E+000	-3.14100E-001	-1.04221E-004	10	...........	-327.56
	3634	1817.5	-3.59654E-001	-2.94868E-002	0.00000E+000	-3.60100E-001	-1.02855E-004	11	...........	-327.56
	3680	1840.5	-4.05551E-001	-5.40561E-002	0.00000E+000	-4.06100E-001	-1.03688E-004	11	...........	-327.56
	3726	1863.5	-4.51447E-001	-9.31055E-002	0.00000E+000	-4.52100E-001	-1.00755E-004	11	...........	-327.56
	3772	1886.5	-4.97382E-001	-1.67629E-001	0.00000E+000	-4.98100E-001	-1.04721E-004	11	...........	-327.56
	3818	1909.5	-5.43169E-001	-2.37966E-001	0.00000E+000	-5.44100E-001	-9.64881E-005	11	...........	-327.56
	3864	1932.5	-5.89074E-001	-2.55228E-001	0.00000E+000	-5.90100E-001	-9.33214E-005	11	...........	-327.56
	3910	1955.5	-6.35257E-001	-3.07291E-001	0.00000E+000	-6.36100E-001	-1.04755E-004	12	...........	-327.56
	3956	1978.5	-6.81169E-001	-3.68854E-001	0.00000E+000	-6.82100E-001	-1.04588E-004	12	...........	-327.56
	4002	2001.5	-7.27143E-001	-4.44192E-001	0.00000E+000	-7.28100E-001	-1.05488E-004	12	...........	-327.56
	4048	2024.5	-7.73056E-001	-4.70836E-001	0.00000E+000	-7.74100E-001	-1.08921E-004	12	...........	-327.56
	4094	2047.5	-8.18970E-001	-5.47501E-001	0.00000E+000	-8.20100E-001	-1.05621E-004	12	...........	-327.56
	4140	2070.5	-8.64807E-001	-6.51783E-001	0.00000E+000	-8.66100E-001	-1.04455E-004	12	...........	-327.56
	4186	2093.5	-9.10711E-001	-7.53384E-001	0.00000E+000	-9.12100E-001	-1.04855E-004	12	...........	-327.56
	4232	2116.5	-9.56739E-001	-7.49022E-001	0.00000E+000	-9.58100E-001	-1.07288E-004	12	...........	-327.56
	4278	2139.5	-1.00268E+000	-7.13450E-001	0.00000E+000	-1.00410E+000	-1.04388E-004	12	...........	-327.56
	4324	2162.5	-1.04854E+000	-8.28004E-001	0.00000E+000	-1.05010E+000	-1.03588E-004	12	...........	-327.56
	4370	2185.5	-1.09443E+000	-9.43101E-001	0.00000E+000	-1.09610E+000	-1.01355E-004	12	...........	-327.56
	4416	2208.5	-1.14027E+000	-1.05445E+000	0.00000E+000	-1.14210E+000	-1.02855E-004	12	...........	-327.56
	4462	2231.5	-1.18623E+000	-1.17178E+000	0.00000E+000	-1.18810E+000	-1.02188E-004	12	...........	-327.56
	4474	2237.5	-1.19814E+000	-1.20369E+000	0.00000E+000	-1.20010E+000	-1.00721E-004	12	...........	-327.56
CURVE2	TABLE
	Pt	T	Vf	Im	Vu	Sig	Ach	IERange	Over	Temp
	#	s	V vs. Ref.	A	V	V	V	#	bits	deg C
	4475	2238	-1.19703E+000	-1.20078E+000	0.00000E+000	-1.19900E+000	-1.02688E-004	12	...........	-327.56
	4535	2268	-1.13726E+000	-1.04865E+000	0.00000E+000	-1.13900E+000	-1.05288E-004	12	...........	-327.56
	4595	2298	-1.07738E+000	-8.98003E-001	0.00000E+000	-1.07900E+000	-1.03088E-004	12	...........	-327.56
	4655	2328	-1.01750E+000	-7.47516E-001	0.00000E+000	-1.01900E+000	-1.04021E-004	12	...........	-327.56
	4715	2358	-9.57722E-001	-6.00462E-001	0.00000E+000	-9.59000E-001	-1.02521E-004	12	...........	-327.56
	4775	2388	-8.97845E-001	-4.55801E-001	0.00000E+000	-8.99000E-001	-1.03288E-004	12	...........	-327.56
	4835	2418	-8.37928E-001	-3.28745E-001	0.00000E+000	-8.39000E-001	-1.03688E-004	12	...........	-327.56
	4895	2448	-7.77909E-001	-2.10692E-001	0.00000E+000	-7.79000E-001	-9.45548E-005	11	...........	-327.56
	4955	2478	-7.18075E-001	-1.19912E-001	0.00000E+000	-7.19000E-001	-1.05421E-004	11	...........	-327.56
	5015	2508	-6.58263E-001	-4.17630E-002	0.00000E+000	-6.59000E-001	-1.07788E-004	11	...........	-327.56
	5075	2538	-5.98484E-001	5.88255E-002	0.00000E+000	-5.99000E-001	-1.02521E-004	11	...........	-327.56
	5135	2568	-5.38747E-001	1.71281E-001	0.00000E+000	-5.39000E-001	-9.84881E-005	11	...........	-327.56
	5195	2598	-4.78641E-001	2.81494E-001	0.00000E+000	-4.79000E-001	-1.05188E-004	12	...........	-327.56
	5255	2628	-4.18834E-001	3.76123E-001	0.00000E+000	-4.19000E-001	-1.04188E-004	12	...........	-327.56
	5315	2658	-3.58933E-001	5.24905E-001	0.00000E+000	-3.59000E-001	-1.02488E-004	12	...........	-327.56
	5375	2688	-2.99043E-001	6.62910E-001	0.00000E+000	-2.99000E-001	-1.06121E-004	12	...........	-327.56
	5435	2718	-2.39212E-001	7.34252E-001	0.00000E+000	-2.39000E-001	-1.03355E-004	12	...........	-327.56
	5495	2748	-1.79225E-001	7.00083E-001	0.00000E+000	-1.79000E-001	-1.04821E-004	12	...........	-327.56
	5555	2778	-1.19016E-001	3.92696E-001	0.00000E+000	-1.19000E-001	-1.06121E-004	12	...........	-327.56
	5615	2808	-5.92167E-002	1.63611E-001	0.00000E+000	-5.90000E-002	-1.05188E-004	11	...........	-327.56
	5675	2838	6.39773E-004	1.31661E-001	0.00000E+000	1.00000E-003	-1.03255E-004	11	...........	-327.56
	5735	2868	6.05977E-002	1.70592E-001	0.00000E+000	6.10000E-002	-1.06688E-004	11	...........	-327.56
	5795	2898	1.20405E-001	1.94722E-001	0.00000E+000	1.21000E-001	-1.01621E-004	11	...........	-327.56
	5855	2928	1.80513E-001	1.36339E-001	0.00000E+000	1.81000E-001	-1.05355E-004	11	...........	-327.56
	5915	2958	2.40487E-001	1.32723E-001	0.00000E+000	2.41000E-001	-1.00788E-004	11	...........	-327.56
	5975	2988	3.00331E-001	1.54033E-001	0.00000E+000	3.01000E-001	-1.05055E-004	11	...........	-327.56
	6035	3018	3.60265E-001	1.78753E-001	0.00000E+000	3.61000E-001	-1.05321E-004	11	...........	-327.56
	6095	3048	4.20284E-001	1.45750E-001	0.00000E+000	4.21000E-001	-1.08088E-004	11	...........	-327.56
	6155	3078	4.80237E-001	1.29020E-001	0.00000E+000	4.81000E-001	-1.05321E-004	11	...........	-327.56
	6215	3108	5.40240E-001	1.06958E-001	0.00000E+000	5.41000E-001	-1.05121E-004	11	...........	-327.56
	6275	3138	6.00241E-001	9.71512E-002	0.00000E+000	6.01000E-001	-1.05388E-004	11	...........	-327.56
	6335	3168	6.60167E-001	7.77636E-002	0.00000E+000	6.61000E-001	-1.09988E-004	11	...........	-327.56
	6395	3198	7.20154E-001	6.17217E-002	0.00000E+000	7.21000E-001	-1.05888E-004	11	...........	-327.56
	6455	3228	7.80098E-001	5.32217E-002	0.00000E+000	7.81000E-001	-1.05521E-004	11	...........	-327.56
	6515	3258	8.40002E-001	4.97705E-002	0.00000E+000	8.41000E-001	-1.06088E-004	11	...........	-327.56
	6575	3288	9.00004E-001	4.65346E-002	0.00000E+000	9.01000E-001	-1.06688E-004	11	...........	-327.56
	6635	3318	9.59942E-001	4.34889E-002	0.00000E+000	9.61000E-001	-1.08988E-004	11	...........	-327.56
	6695	3348	1.01986E+000	4.61632E-002	0.00000E+000	1.02100E+000	-1.03355E-004	11	...........	-327.56
	6755	3378	1.07983E+000	5.45479E-002	0.00000E+000	1.08100E+000	-1.04655E-004	11	...........	-327.56
	6815	3408	1.13962E+000	6.14376E-002	0.00000E+000	1.14100E+000	-1.03955E-004	11	...........	-327.56
	6875	3438	1.19965E+000	5.22179E-002	0.00000E+000	1.20100E+000	-1.09955E-004	11	...........	-327.56
	6935	3468	1.25962E+000	8.38424E-002	0.00000E+000	1.26100E+000	-1.03688E-004	11	...........	-327.56
	6995	3498	1.31934E+000	1.68034E-001	0.00000E+000	1.32100E+000	-1.07288E-004	11	...........	-327.56
	7055	3528	1.37944E+000	2.88968E-001	0.00000E+000	1.38100E+000	-1.08088E-004	12	...........	-327.56
[...]
	10665	5333	-8.08021E-001	-2.75836E-001	0.00000E+000	-8.09000E-001	-1.09388E-004	12	...........	-327.56
	10695	5348	-7.77891E-001	-2.23852E-001	0.00000E+000	-7.79000E-001	-9.60214E-005	11	...........	-327.56
	10725	5363	-7.47986E-001	-1.76608E-001	0.00000E+000	-7.49000E-001	-9.80548E-005	11	...........	-327.56
	10755	5378	-7.18059E-001	-1.33454E-001	0.00000E+000	-7.19000E-001	-1.04521E-004	11	...........	-327.56
	10785	5393	-6.88127E-001	-9.39805E-002	0.00000E+000	-6.89000E-001	-1.05788E-004	11	...........	-327.56
	10815	5408	-6.58229E-001	-5.63134E-002	0.00000E+000	-6.59000E-001	-1.06721E-004	11	...........	-327.56
	10845	5423	-6.28153E-001	-1.36058E-002	0.00000E+000	-6.29000E-001	-1.02788E-004	10	...........	-327.56
	10875	5438	-5.98463E-001	3.34031E-002	0.00000E+000	-5.99000E-001	-1.07388E-004	11	...........	-327.56
	10905	5453	-5.68568E-001	8.48101E-002	0.00000E+000	-5.69000E-001	-1.07255E-004	11	...........	-327.56
	10935	5468	-5.38672E-001	1.40207E-001	0.00000E+000	-5.39000E-001	-1.02555E-004	11	...........	-327.56
	10965	5483	-5.08821E-001	1.95186E-001	0.00000E+000	-5.09000E-001	-1.04221E-004	11	...........	-327.56
	10995	5498	-4.78912E-001	2.48675E-001	0.00000E+000	-4.79000E-001	-1.05055E-004	11	...........	-327.56
	11025	5513	-4.48698E-001	3.00379E-001	0.00000E+000	-4.49000E-001	-1.06188E-004	12	...........	-327.56
	11055	5528	-4.18825E-001	3.60881E-001	0.00000E+000	-4.19000E-001	-1.05821E-004	12	...........	-327.56
	11085	5543	-3.88854E-001	4.36028E-001	0.00000E+000	-3.89000E-001	-1.07388E-004	12	...........	-327.56
	11115	5558	-3.58921E-001	5.13628E-001	0.00000E+000	-3.59000E-001	-1.04921E-004	12	...........	-327.56
	11145	5573	-3.28941E-001	5.87367E-001	0.00000E+000	-3.29000E-001	-1.06188E-004	12	...........	-327.56
	11175	5588	-2.99036E-001	6.55134E-001	0.00000E+000	-2.99000E-001	-1.08188E-004	12	...........	-327.56
	11205	5603	-2.69103E-001	7.09309E-001	0.00000E+000	-2.69000E-001	-1.02955E-004	12	...........	-327.56
	11235	5618	-2.39217E-001	7.37845E-001	0.00000E+000	-2.39000E-001	-1.06721E-004	12	...........	-327.56
	11265	5633	-2.09205E-001	7.42751E-001	0.00000E+000	-2.09000E-001	-1.08055E-004	12	...........	-327.56
	11295	5648	-1.79226E-001	7.03631E-001	0.00000E+000	-1.79000E-001	-1.06955E-004	12	...........	-327.56
	11325	5663	-1.49129E-001	5.72003E-001	0.00000E+000	-1.49000E-001	-1.06421E-004	12	...........	-327.56
	11355	5678	-1.18979E-001	3.35428E-001	0.00000E+000	-1.19000E-001	-1.05655E-004	12	...........	-327.56
	11385	5693	-8.92470E-002	1.91737E-001	0.00000E+000	-8.90000E-002	-1.01455E-004	11	...........	-327.56
	11415	5708	-5.91083E-002	1.14841E-001	0.00000E+000	-5.90000E-002	-1.05321E-004	11	...........	-327.56
	11445	5723	-2.90629E-002	9.65660E-002	0.00000E+000	-2.90000E-002	-1.06555E-004	11	...........	-327.56
	11475	5738	6.82406E-004	1.01189E-001	0.00000E+000	1.00000E-003	-1.04088E-004	11	...........	-327.56
	11505	5753	3.06892E-002	1.21936E-001	0.00000E+000	3.10000E-002	-1.06988E-004	11	...........	-327.56
	11535	5768	6.06466E-002	1.45745E-001	0.00000E+000	6.10000E-002	-1.02388E-004	11	...........	-327.56
	11565	5783	9.04783E-002	1.63009E-001	0.00000E+000	9.10000E-002	-1.06255E-004	11	...........	-327.56
	11595	5798	1.20414E-001	1.84682E-001	0.00000E+000	1.21000E-001	-1.00688E-004	11	...........	-327.56
	11625	5813	1.50432E-001	1.77445E-001	0.00000E+000	1.51000E-001	-1.05721E-004	11	...........	-327.56
	11655	5828	1.80464E-001	1.57531E-001	0.00000E+000	1.81000E-001	-1.04921E-004	11	...........	-327.56
	11685	5843	2.10464E-001	1.47830E-001	0.00000E+000	2.11000E-001	-1.09021E-004	11	...........	-327.56
	11715	5858	2.40507E-001	1.25870E-001	0.00000E+000	2.41000E-001	-1.03788E-004	11	...........	-327.56
	11745	5873	2.70356E-001	1.31535E-001	0.00000E+000	2.71000E-001	-1.09355E-004	11	...........	-327.56
	11775	5888	3.00350E-001	1.39526E-001	0.00000E+000	3.01000E-001	-1.03055E-004	11	...........	-327.56
	11805	5903	3.30290E-001	1.52744E-001	0.00000E+000	3.31000E-001	-1.02588E-004	11	...........	-327.56
	11835	5918	3.60289E-001	1.64564E-001	0.00000E+000	3.61000E-001	-1.02955E-004	11	...........	-327.56
	11865	5933	3.90269E-001	1.84479E-001	0.00000E+000	3.91000E-001	-1.06121E-004	11	...........	-327.56
	11895	5948	4.20248E-001	1.67305E-001	0.00000E+000	4.21000E-001	-1.07388E-004	11	...........	-327.56
	11925	5963	4.50205E-001	1.44178E-001	0.00000E+000	4.51000E-001	-1.07455E-004	11	...........	-327.56
	11955	5978	4.80214E-001	1.38810E-001	0.00000E+000	4.81000E-001	-1.03221E-004	11	...........	-327.56
	11985	5993	5.10270E-001	1.32232E-001	0.00000E+000	5.11000E-001	-1.06121E-004	11	...........	-327.56
	12015	6008	5.40214E-001	1.26236E-001	0.00000E+000	5.41000E-001	-1.06121E-004	11	...........	-327.56
	12045	6023	5.70218E-001	1.21676E-001	0.00000E+000	5.71000E-001	-1.01921E-004	11	...........	-327.56
	12075	6038	6.00210E-001	1.15194E-001	0.00000E+000	6.01000E-001	-1.07988E-004	11	...........	-327.56
	12105	6053	6.30127E-001	1.06147E-001	0.00000E+000	6.31000E-001	-1.06488E-004	11	...........	-327.56
	12135	6068	6.60137E-001	9.20867E-002	0.00000E+000	6.61000E-001	-1.10921E-004	11	...........	-327.56
	12165	6083	6.90130E-001	8.64941E-002	0.00000E+000	6.91000E-001	-1.07155E-004	11	...........	-327.56
	12195	6098	7.20119E-001	7.84011E-002	0.00000E+000	7.21000E-001	-1.06421E-004	11	...........	-327.56
	12225	6113	7.50126E-001	7.24057E-002	0.00000E+000	7.51000E-001	-1.03921E-004	11	...........	-327.56
	12255	6128	7.80093E-001	6.42294E-002	0.00000E+000	7.81000E-001	-1.06721E-004	11	...........	-327.56
	12285	6143	8.10016E-001	5.91468E-002	0.00000E+000	8.11000E-001	-1.09055E-004	11	...........	-327.56
	12315	6158	8.40002E-001	5.45436E-002	0.00000E+000	8.41000E-001	-1.08421E-004	11	...........	-327.56
	12345	6173	8.69980E-001	5.04650E-002	0.00000E+000	8.71000E-001	-1.04288E-004	11	...........	-327.56
	12375	6188	9.00004E-001	4.85929E-002	0.00000E+000	9.01000E-001	-1.06355E-004	11	...........	-327.56
	12405	6203	9.29967E-001	4.69232E-002	0.00000E+000	9.31000E-001	-1.08521E-004	11	...........	-327.56
	12435	6218	9.59942E-001	4.50938E-002	0.00000E+000	9.61000E-001	-1.04355E-004	11	...........	-327.56
	12465	6233	9.89850E-001	4.46880E-002	0.00000E+000	9.91000E-001	-1.07855E-004	11	...........	-327.56
	12495	6248	1.01985E+000	4.73357E-002	0.00000E+000	1.02100E+000	-1.05655E-004	11	...........	-327.56
	12525	6263	1.04982E+000	5.10844E-002	0.00000E+000	1.05100E+000	-1.05655E-004	11	...........	-327.56
	12555	6278	1.07984E+000	5.66721E-002	0.00000E+000	1.08100E+000	-1.06488E-004	11	...........	-327.56
	12585	6293	1.10980E+000	6.16325E-002	0.00000E+000	1.11100E+000	-1.08255E-004	11	...........	-327.56
	12615	6308	1.13963E+000	6.39114E-002	0.00000E+000	1.14100E+000	-1.04421E-004	11	...........	-327.56
	12645	6323	1.16964E+000	5.82804E-002	0.00000E+000	1.17100E+000	-1.08588E-004	11	...........	-327.56
	12675	6338	1.19965E+000	5.06281E-002	0.00000E+000	1.20100E+000	-1.04588E-004	11	...........	-327.56
	12705	6353	1.22965E+000	5.47412E-002	0.00000E+000	1.23100E+000	-1.08521E-004	11	...........	-327.56
	12735	6368	1.25964E+000	7.55720E-002	0.00000E+000	1.26100E+000	-1.09455E-004	11	...........	-327.56
	12765	6383	1.28956E+000	1.09816E-001	0.00000E+000	1.29100E+000	-1.07555E-004	11	...........	-327.56
	12795	6398	1.31937E+000	1.55892E-001	0.00000E+000	1.32100E+000	-1.05155E-004	11	...........	-327.56
	12825	6413	1.34925E+000	2.09393E-001	0.00000E+000	1.35100E+000	-1.04055E-004	11	...........	-327.56
	12855	6428	1.37915E+000	2.68048E-001	0.00000E+000	1.38100E+000	-1.03321E-004	11	...........	-327.56
	12885	6443	1.40946E+000	3.29511E-001	0.00000E+000	1.41100E+000	-1.07388E-004	12	...........	-327.56
	12915	6458	1.43936E+000	3.91940E-001	0.00000E+000	1.44100E+000	-1.11655E-004	12	...........	-327.56
	12945	6473	1.46930E+000	4.53126E-001	0.00000E+000	1.47100E+000	-1.03988E-004	12	...........	-327.56
	12975	6488	1.49915E+000	5.15792E-001	0.00000E+000	1.50100E+000	-1.05455E-004	12	...........	-327.56
	13005	6503	1.52911E+000	5.85900E-001	0.00000E+000	1.53100E+000	-1.05755E-004	12	...........	-327.56
	13035	6518	1.55902E+000	6.65668E-001	0.00000E+000	1.56100E+000	-1.06821E-004	12	...........	-327.56
	13065	6533	1.58898E+000	7.50870E-001	0.00000E+000	1.59100E+000	-1.04055E-004	12	...........	-327.56
	13095	6548	1.61892E+000	8.37932E-001	0.00000E+000	1.62100E+000	-1.07255E-004	12	...........	-327.56
	13125	6563	1.64880E+000	9.43970E-001	0.00000E+000	1.65100E+000	-1.08088E-004	12	...........	-327.56
	13155	6578	1.67866E+000	1.03482E+000	0.00000E+000	1.68100E+000	-1.06655E-004	12	...........	-327.56
	13174	6587.5	1.69769E+000	1.09766E+000	0.00000E+000	1.70000E+000	-1.07821E-004	12	...........	-327.56