File: testing/data/240902_22_MCL13_cspWE_CV1_750C_CO2.DTA
EXPLAIN
TAG	CV
TITLE	LABEL	Cyclic Voltammetry	Test Identifier
DATE	LABEL	9/3/2024	Date
TIME	LABEL	22:45:35	Time
NOTES	NOTES	5	Notes...
	cswWE - carbon steel wire
cspWE - carbon steel plate 2x2 tapered

Carbon steel plate counter electrode
Carbon steel wire reference electrode
PSTAT	PSTAT	REF3000-48128	Potentiostat
VINIT	POTEN	0.00000E+000	T	Initial E (V)
VLIMIT1	POTEN	1.70000E+000	F	Scan Limit 1 (V)
VLIMIT2	POTEN	-6.00000E-001	F	Scan Limit 2 (V)
VFINAL	POTEN	1.70000E+000	F	Final E (V)
SCANRATE	QUANT	9.99998E-001	Scan Rate (mV/s)
STEPSIZE	QUANT	1.00000E+000	Step Size (mV)
CYCLES	IQUANT	2	Cycles (#)
IMODE	SELECTOR	0	I/E Range Mode
IRANGE	QUANT	3.00000E-001	Max Current (mA)
AREA	QUANT	1.00000E+000	Sample Area (cm^2)
EQDELAY	QUANT	0.00000E+000	Equil. Time (s)
IRCOMP	SELECTOR	0	IRComp
PFCOR	QUANT	5.00000E+001	PF Corr. (ohm)
SAMPLINGMODE	SELECTOR	1	Sampling Mode
EOC	QUANT	0.3759207	Open Circuit (V)
ELECTRODETYPE	SELECTOR	0	Electrode Type
STRIPPING	TOGGLE	F	Used for Stripping
SEQUENCER	TOGGLE	TRUE	Run as Sequence
PSTATMODEL	IQUANT	5	Pstat Model
PSTATSECTION	LABEL	REF3000-48128	Pstat Section
PSTATSERIALNO	LABEL	48128	Pstat Serial Number
CTRLMODE	IQUANT	1	Control Mode
ELECTROMETER	IQUANT	0	RE=0 or CS=1
IESTAB	IQUANT	2	I/E Stability
CASPEED	IQUANT	4	Control Amp Speed
CONVENTION	IQUANT	1	Current Convention
ICHRANGE	IQUANT	2	Ich Range
ICHRANGEMODE	TOGGLE	F	Ich Auto Range
ICHOFFSETENABLE	TOGGLE	F	Ich Offset Enable
ICHOFFSET	QUANT	0	Ich Offset (V)
ICHFILTER	IQUANT	3	Ich Filter
VCHRANGE	IQUANT	2	Vch Range
VCHRANGEMODE	TOGGLE	F	Vch Auto Range
VCHOFFSETENABLE	TOGGLE	F	Vch Offset Enable
VCHOFFSET	QUANT	0	Vch Offset (V)
VCHFILTER	IQUANT	3	Vch Filter
ACHRANGE	IQUANT	2	Ach Range
ACHOFFSETENABLE	TOGGLE	F	Ach Offset Enable
ACHOFFSET	QUANT	0	Ach Offset (V)
ACHFILTER	IQUANT	1	Ach Filter
IERANGELOWERLIMIT	IQUANT	2	I/E Range Lower Limit
IERANGEMODE	TOGGLE	T	I/E AutoRange
IERANGE	IQUANT	9	I/E Range
POSFEEDENABLE	TOGGLE	F	Positive Feedback IR Comp
POSFEEDRESISTANCE	QUANT	0	Positive Feedback Resistance (ohm)
ACHSELECT	IQUANT	4	Ach Select
SENSECABLEID	IQUANT	14	Sense Cable ID
PWRCABLEID	IQUANT	7	Power Cable ID
DCCALDATE	LABEL	8/16/2024	DC Calibration Date
ACCALDATE	LABEL	8/16/2024	AC Calibration Date
THERMOSELECT	IQUANT	1	Thermo Select
FRAMEWORKVERSION	LABEL	7.10.3	Framework Version
INSTRUMENTVERSION	LABEL	4.91	Instrument Version
COMMVERSION	LABEL	5.10	Communications Version
CPUPLDVERSION	LABEL	6.00	CPU PLD Version
CTRLPLDVERSION	LABEL	3.21	CTRL PLD Version
PSTATPLDVERSION	LABEL	0.00	PSTAT PLD Version
COMPLIANCEVOLTAGE	IQUANT	0	Compliance Voltage
CURVE1	TABLE
	Pt	T	Vf	Im	Vu	Sig	Ach	IERange	Over	Temp
	#	s	V vs. Ref.	A	V	V	V	#	bits	deg C
	0	1	3.74464E-001	3.29009E-003	0.00000E+000	3.75900E-001	-1.02738E-004	9	....ih..i..	-327.56
	37	38	4.12200E-001	1.41688E-001	0.00000E+000	4.12900E-001	-1.17838E-004	11	...........	-327.56
	74	75	4.49005E-001	2.08681E-001	0.00000E+000	4.49900E-001	-1.15305E-004	11	...........	-327.56
	111	112	4.85920E-001	2.59056E-001	0.00000E+000	4.86900E-001	-1.11588E-004	11	...........	-327.56
	148	149	5.23161E-001	2.86091E-001	0.00000E+000	5.23900E-001	-1.16721E-004	12	...........	-327.56
	185	186	5.60085E-001	3.04487E-001	0.00000E+000	5.60900E-001	-1.17755E-004	12	...........	-327.56
	222	223	5.97119E-001	3.12673E-001	0.00000E+000	5.97900E-001	-1.17471E-004	12	...........	-327.56
	259	260	6.34024E-001	3.15053E-001	0.00000E+000	6.34900E-001	-1.15405E-004	12	...........	-327.56
	296	297	6.71051E-001	3.10798E-001	0.00000E+000	6.71900E-001	-1.16088E-004	12	...........	-327.56
	333	334	7.07973E-001	2.96654E-001	0.00000E+000	7.08900E-001	-1.17021E-004	12	...........	-327.56
	370	371	7.44976E-001	2.75512E-001	0.00000E+000	7.45900E-001	-1.21471E-004	12	...........	-327.56
	407	408	7.81884E-001	2.50213E-001	0.00000E+000	7.82900E-001	-1.21621E-004	12	...........	-327.56
	444	445	8.18686E-001	2.28148E-001	0.00000E+000	8.19900E-001	-1.15821E-004	11	...........	-327.56
	481	482	8.55703E-001	2.12022E-001	0.00000E+000	8.56900E-001	-1.15271E-004	11	...........	-327.56
	518	519	8.92684E-001	2.01312E-001	0.00000E+000	8.93900E-001	-1.18171E-004	11	...........	-327.56
	555	556	9.29622E-001	1.95087E-001	0.00000E+000	9.30900E-001	-1.17605E-004	11	...........	-327.56
	592	593	9.66571E-001	1.92644E-001	0.00000E+000	9.67900E-001	-1.16871E-004	11	...........	-327.56
	629	630	1.00358E+000	1.96236E-001	0.00000E+000	1.00490E+000	-1.17288E-004	11	...........	-327.56
	666	667	1.04043E+000	2.11273E-001	0.00000E+000	1.04190E+000	-1.15455E-004	11	...........	-327.56
	703	704	1.07739E+000	2.71803E-001	0.00000E+000	1.07890E+000	-1.13271E-004	11	...........	-327.56
	740	741	1.11455E+000	2.96386E-001	0.00000E+000	1.11590E+000	-1.24538E-004	12	...........	-327.56
	777	778	1.15150E+000	3.55218E-001	0.00000E+000	1.15290E+000	-1.22155E-004	12	...........	-327.56
	814	815	1.18847E+000	4.20790E-001	0.00000E+000	1.18990E+000	-1.22621E-004	12	...........	-327.56
	851	852	1.22542E+000	4.90314E-001	0.00000E+000	1.22690E+000	-1.23871E-004	12	...........	-327.56
	888	889	1.26236E+000	5.71011E-001	0.00000E+000	1.26390E+000	-1.22255E-004	12	...........	-327.56
	925	926	1.29919E+000	6.95204E-001	0.00000E+000	1.30090E+000	-1.24221E-004	12	...........	-327.56
	962	963	1.33607E+000	8.79115E-001	0.00000E+000	1.33790E+000	-1.23488E-004	12	...........	-327.56
	999	1000	1.37281E+000	1.06780E+000	0.00000E+000	1.37490E+000	-1.23338E-004	12	...........	-327.56
	1036	1037	1.40981E+000	1.22193E+000	0.00000E+000	1.41190E+000	-1.25405E-004	12	...........	-327.56
	1073	1074	1.44663E+000	1.35777E+000	0.00000E+000	1.44890E+000	-1.25238E-004	12	...........	-327.56
	1110	1111	1.48360E+000	1.48239E+000	0.00000E+000	1.48590E+000	-1.23005E-004	12	...........	-327.56
	1147	1148	1.52061E+000	1.59623E+000	0.00000E+000	1.52290E+000	-1.19271E-004	12	...........	-327.56
	1184	1185	1.55744E+000	1.69448E+000	0.00000E+000	1.55990E+000	-1.19788E-004	12	...........	-327.56
	1221	1222	1.59442E+000	1.79598E+000	0.00000E+000	1.59690E+000	-1.22738E-004	12	...........	-327.56
	1258	1259	1.63134E+000	1.90501E+000	0.00000E+000	1.63390E+000	-1.22938E-004	12	...........	-327.56
	1295	1296	1.66834E+000	2.00181E+000	0.00000E+000	1.67090E+000	-1.18288E-004	12	...........	-327.56
	1332	1333	1.68928E+000	2.06289E+000	0.00000E+000	1.69190E+000	-1.18671E-004	12	...........	-327.56
	1369	1370	1.65225E+000	1.95122E+000	0.00000E+000	1.65490E+000	-1.21871E-004	12	...........	-327.56
	1406	1407	1.61542E+000	1.83261E+000	0.00000E+000	1.61790E+000	-1.17738E-004	12	...........	-327.56
	1443	1444	1.57840E+000	1.71598E+000	0.00000E+000	1.58090E+000	-1.17038E-004	12	...........	-327.56
	1480	1481	1.54152E+000	1.60514E+000	0.00000E+000	1.54390E+000	-1.12288E-004	12	...........	-327.56
	1517	1518	1.50455E+000	1.50099E+000	0.00000E+000	1.50690E+000	-1.15171E-004	12	...........	-327.56
	1554	1555	1.46769E+000	1.39911E+000	0.00000E+000	1.46990E+000	-1.16871E-004	12	...........	-327.56
	1591	1592	1.43071E+000	1.28036E+000	0.00000E+000	1.43290E+000	-1.13871E-004	12	...........	-327.56
	1628	1629	1.39385E+000	1.17200E+000	0.00000E+000	1.39590E+000	-1.15705E-004	12	...........	-327.56
	1665	1666	1.35689E+000	1.07930E+000	0.00000E+000	1.35890E+000	-1.16405E-004	12	...........	-327.56
	1702	1703	1.31995E+000	9.73502E-001	0.00000E+000	1.32190E+000	-1.14138E-004	12	...........	-327.56
	1739	1740	1.28313E+000	8.76166E-001	0.00000E+000	1.28490E+000	-1.17888E-004	12	...........	-327.56
	1776	1777	1.24618E+000	7.65046E-001	0.00000E+000	1.24790E+000	-1.16188E-004	12	...........	-327.56
	1813	1814	1.20928E+000	6.77716E-001	0.00000E+000	1.21090E+000	-1.14188E-004	12	...........	-327.56
	1850	1851	1.17233E+000	5.64083E-001	0.00000E+000	1.17390E+000	-1.17988E-004	12	...........	-327.56
	1887	1888	1.13547E+000	4.49911E-001	0.00000E+000	1.13690E+000	-1.17205E-004	12	...........	-327.56
	1924	1925	1.09857E+000	3.46513E-001	0.00000E+000	1.09990E+000	-1.17071E-004	12	...........	-327.56
	1961	1962	1.06170E+000	2.59040E-001	0.00000E+000	1.06290E+000	-1.18571E-004	12	...........	-327.56
	1998	1999	1.02451E+000	1.91067E-001	0.00000E+000	1.02590E+000	-1.12121E-004	11	...........	-327.56
	2035	2036	9.87586E-001	1.46569E-001	0.00000E+000	9.88900E-001	-1.16421E-004	11	...........	-327.56
	2072	2073	9.50746E-001	1.24022E-001	0.00000E+000	9.51900E-001	-1.16005E-004	11	...........	-327.56
	2109	2110	9.13761E-001	1.10373E-001	0.00000E+000	9.14900E-001	-1.18138E-004	11	...........	-327.56
	2146	2147	8.76856E-001	1.04244E-001	0.00000E+000	8.77900E-001	-1.17171E-004	11	...........	-327.56
	2183	2184	8.39878E-001	1.03115E-001	0.00000E+000	8.40900E-001	-1.19521E-004	11	...........	-327.56
	2220	2221	8.02960E-001	1.00250E-001	0.00000E+000	8.03900E-001	-1.17688E-004	11	...........	-327.56
	2257	2258	7.65921E-001	1.00663E-001	0.00000E+000	7.66900E-001	-1.18705E-004	11	...........	-327.56
	2294	2295	7.28982E-001	9.93712E-002	0.00000E+000	7.29900E-001	-1.20188E-004	11	...........	-327.56
	2331	2332	6.92036E-001	9.06218E-002	0.00000E+000	6.92900E-001	-1.14405E-004	11	...........	-327.56
	2368	2369	6.55040E-001	8.59603E-002	0.00000E+000	6.55900E-001	-1.19438E-004	11	...........	-327.56
	2405	2406	6.18133E-001	8.08628E-002	0.00000E+000	6.18900E-001	-1.16921E-004	11	...........	-327.56
	2442	2443	5.81126E-001	7.33063E-002	0.00000E+000	5.81900E-001	-1.19421E-004	11	...........	-327.56
	2479	2480	5.44247E-001	6.41076E-002	0.00000E+000	5.44900E-001	-1.18838E-004	11	...........	-327.56
	2516	2517	5.07282E-001	5.20885E-002	0.00000E+000	5.07900E-001	-1.19055E-004	11	...........	-327.56
	2553	2554	4.70363E-001	3.84834E-002	0.00000E+000	4.70900E-001	-1.20188E-004	11	...........	-327.56
	2590	2591	4.33392E-001	2.47888E-002	0.00000E+000	4.33900E-001	-1.19905E-004	11	...........	-327.56
	2627	2628	3.96307E-001	1.16900E-002	0.00000E+000	3.96900E-001	-1.22271E-004	10	...........	-327.56
	2664	2665	3.59886E-001	-2.85683E-003	0.00000E+000	3.59900E-001	-1.02955E-004	9	...........	-327.56
	2701	2702	3.22691E-001	-1.94234E-002	0.00000E+000	3.22900E-001	-1.20055E-004	10	...........	-327.56
	2738	2739	2.85622E-001	-3.71937E-002	0.00000E+000	2.85900E-001	-1.23605E-004	11	...........	-327.56
	2775	2776	2.48625E-001	-5.31367E-002	0.00000E+000	2.48900E-001	-1.22988E-004	11	...........	-327.56
	2812	2813	2.11730E-001	-5.59049E-002	0.00000E+000	2.11900E-001	-1.25438E-004	11	...........	-327.56
	2849	2850	1.74711E-001	-6.07078E-002	0.00000E+000	1.74900E-001	-1.21288E-004	11	...........	-327.56
	2886	2887	1.37846E-001	-7.66242E-002	0.00000E+000	1.37900E-001	-1.24238E-004	11	...........	-327.56
	2923	2924	1.00880E-001	-8.94210E-002	0.00000E+000	1.00900E-001	-1.25038E-004	11	...........	-327.56
	2960	2961	6.39187E-002	-8.67991E-002	0.00000E+000	6.39000E-002	-1.21871E-004	11	...........	-327.56
	2997	2998	2.69139E-002	-7.40114E-002	0.00000E+000	2.69001E-002	-1.24038E-004	11	...........	-327.56
	3034	3035	-9.91305E-003	-7.18429E-002	0.00000E+000	-1.00999E-002	-1.25288E-004	11	...........	-327.56
	3071	3072	-4.68512E-002	-7.51214E-002	0.00000E+000	-4.70999E-002	-1.23138E-004	11	...........	-327.56
	3108	3109	-8.38342E-002	-7.97589E-002	0.00000E+000	-8.40999E-002	-1.26105E-004	11	...........	-327.56
	3145	3146	-1.20721E-001	-8.59388E-002	0.00000E+000	-1.21100E-001	-1.24805E-004	11	...........	-327.56
	3182	3183	-1.57735E-001	-9.02770E-002	0.00000E+000	-1.58100E-001	-1.22055E-004	11	...........	-327.56
	3219	3220	-1.94653E-001	-9.47506E-002	0.00000E+000	-1.95100E-001	-1.19805E-004	11	...........	-327.56
	3256	3257	-2.31666E-001	-9.73802E-002	0.00000E+000	-2.32100E-001	-1.21305E-004	11	...........	-327.56
	3293	3294	-2.68638E-001	-1.00001E-001	0.00000E+000	-2.69100E-001	-1.25671E-004	11	...........	-327.56
	3330	3331	-3.05585E-001	-1.06654E-001	0.00000E+000	-3.06100E-001	-1.27055E-004	11	...........	-327.56
	3367	3368	-3.42480E-001	-1.20802E-001	0.00000E+000	-3.43100E-001	-1.26421E-004	11	...........	-327.56
	3404	3405	-3.79384E-001	-1.47736E-001	0.00000E+000	-3.80100E-001	-1.23288E-004	11	...........	-327.56
	3441	3442	-4.16382E-001	-1.90747E-001	0.00000E+000	-4.17100E-001	-1.18488E-004	11	...........	-327.56
	3478	3479	-4.53193E-001	-2.50209E-001	0.00000E+000	-4.54100E-001	-1.09355E-004	11	...........	-327.56
	3515	3516	-4.90452E-001	-3.23358E-001	0.00000E+000	-4.91100E-001	-1.24805E-004	12	...........	-327.56
	3552	3553	-5.27287E-001	-3.97173E-001	0.00000E+000	-5.28100E-001	-1.22555E-004	12	...........	-327.56
	3589	3590	-5.64246E-001	-4.80612E-001	0.00000E+000	-5.65100E-001	-1.21921E-004	12	...........	-327.56
	3624	3625	-5.99222E-001	-5.62835E-001	0.00000E+000	-6.00100E-001	-1.25938E-004	12	...........	-327.56
CURVE2	TABLE
	Pt	T	Vf	Im	Vu	Sig	Ach	IERange	Over	Temp
	#	s	V vs. Ref.	A	V	V	V	#	bits	deg C
	3625	3626	-5.98107E-001	-5.57997E-001	0.00000E+000	-5.99000E-001	-1.24588E-004	12	...........	-327.56
	3672	3673	-5.51175E-001	-4.11191E-001	0.00000E+000	-5.52000E-001	-1.29421E-004	12	...........	-327.56
	3719	3720	-5.04310E-001	-2.87269E-001	0.00000E+000	-5.05000E-001	-1.21121E-004	12	...........	-327.56
	3766	3767	-4.57222E-001	-1.76795E-001	0.00000E+000	-4.58000E-001	-1.19888E-004	11	...........	-327.56
	3813	3814	-4.10434E-001	-8.30300E-002	0.00000E+000	-4.11000E-001	-1.24121E-004	11	...........	-327.56
	3860	3861	-3.63462E-001	-8.57721E-003	0.00000E+000	-3.64000E-001	-1.25538E-004	10	...........	-327.56
	3907	3908	-3.16746E-001	3.82873E-002	0.00000E+000	-3.17000E-001	-1.27038E-004	11	...........	-327.56
	3954	3955	-2.69748E-001	6.60083E-002	0.00000E+000	-2.70000E-001	-1.22488E-004	11	...........	-327.56
	4001	4002	-2.22841E-001	8.77082E-002	0.00000E+000	-2.23000E-001	-1.24655E-004	11	...........	-327.56
	4048	4049	-1.75896E-001	1.03172E-001	0.00000E+000	-1.76000E-001	-1.26471E-004	11	...........	-327.56
	4095	4096	-1.28993E-001	1.22138E-001	0.00000E+000	-1.29000E-001	-1.24805E-004	11	...........	-327.56
	4142	4143	-8.20968E-002	1.36690E-001	0.00000E+000	-8.20000E-002	-1.25555E-004	11	...........	-327.56
	4189	4190	-3.52173E-002	1.52435E-001	0.00000E+000	-3.50000E-002	-1.27171E-004	11	...........	-327.56
	4236	4237	1.16147E-002	1.73238E-001	0.00000E+000	1.20000E-002	-1.22521E-004	11	...........	-327.56
	4283	4284	5.85396E-002	2.02538E-001	0.00000E+000	5.90000E-002	-1.25905E-004	11	...........	-327.56
	4330	4331	1.05375E-001	2.56723E-001	0.00000E+000	1.06000E-001	-1.21621E-004	11	...........	-327.56
	4377	4378	1.52561E-001	3.04608E-001	0.00000E+000	1.53000E-001	-1.26538E-004	12	...........	-327.56
	4424	4425	1.99505E-001	3.22372E-001	0.00000E+000	2.00000E-001	-1.24638E-004	12	...........	-327.56
	4471	4472	2.46417E-001	3.34308E-001	0.00000E+000	2.47000E-001	-1.28171E-004	12	...........	-327.56
	4518	4519	2.93462E-001	3.69625E-001	0.00000E+000	2.94000E-001	-1.25471E-004	12	...........	-327.56
	4565	4566	3.40349E-001	4.23199E-001	0.00000E+000	3.41000E-001	-1.26855E-004	12	...........	-327.56
	4612	4613	3.87263E-001	4.82990E-001	0.00000E+000	3.88000E-001	-1.29221E-004	12	...........	-327.56
	4659	4660	4.34185E-001	5.47843E-001	0.00000E+000	4.35000E-001	-1.22971E-004	12	...........	-327.56
	4706	4707	4.81089E-001	6.22351E-001	0.00000E+000	4.82000E-001	-1.25271E-004	12	...........	-327.56
	4753	4754	5.27959E-001	7.01236E-001	0.00000E+000	5.29000E-001	-1.27655E-004	12	...........	-327.56
	4800	4801	5.74958E-001	7.63740E-001	0.00000E+000	5.76000E-001	-1.25655E-004	12	...........	-327.56
	4847	4848	6.21911E-001	7.68637E-001	0.00000E+000	6.23000E-001	-1.28705E-004	12	...........	-327.56
	4894	4895	6.68884E-001	7.34119E-001	0.00000E+000	6.70000E-001	-1.28471E-004	12	...........	-327.56
	4941	4942	7.15868E-001	6.58235E-001	0.00000E+000	7.17000E-001	-1.23871E-004	12	...........	-327.56
	4988	4989	7.62891E-001	5.29210E-001	0.00000E+000	7.64000E-001	-1.27305E-004	12	...........	-327.56
	5035	5036	8.09941E-001	3.82141E-001	0.00000E+000	8.11000E-001	-1.28405E-004	12	...........	-327.56
	5082	5083	8.56996E-001	2.84938E-001	0.00000E+000	8.58000E-001	-1.28938E-004	12	...........	-327.56
	5129	5130	9.03758E-001	2.33934E-001	0.00000E+000	9.05000E-001	-1.23121E-004	11	...........	-327.56
	5176	5177	9.50700E-001	2.10675E-001	0.00000E+000	9.52000E-001	-1.21738E-004	11	...........	-327.56
	5223	5224	9.97664E-001	1.96958E-001	0.00000E+000	9.99000E-001	-1.26071E-004	11	...........	-327.56
	5270	5271	1.04463E+000	2.16100E-001	0.00000E+000	1.04600E+000	-1.25305E-004	11	...........	-327.56
	5317	5318	1.09144E+000	2.68351E-001	0.00000E+000	1.09300E+000	-1.21605E-004	11	...........	-327.56
	5364	5365	1.13864E+000	3.71624E-001	0.00000E+000	1.14000E+000	-1.26138E-004	12	...........	-327.56
	5411	5412	1.18556E+000	4.82327E-001	0.00000E+000	1.18700E+000	-1.28855E-004	12	...........	-327.56
	5458	5459	1.23241E+000	6.29377E-001	0.00000E+000	1.23400E+000	-1.24788E-004	12	...........	-327.56
	5505	5506	1.27925E+000	8.20341E-001	0.00000E+000	1.28100E+000	-1.27721E-004	12	...........	-327.56
	5552	5553	1.32613E+000	1.00440E+000	0.00000E+000	1.32800E+000	-1.23988E-004	12	...........	-327.56
	5599	5600	1.37292E+000	1.17397E+000	0.00000E+000	1.37500E+000	-1.24455E-004	12	...........	-327.56
	5646	5647	1.41990E+000	1.32205E+000	0.00000E+000	1.42200E+000	-1.24905E-004	12	...........	-327.56
	5693	5694	1.46677E+000	1.44277E+000	0.00000E+000	1.46900E+000	-1.26888E-004	12	...........	-327.56
	5740	5741	1.51372E+000	1.55087E+000	0.00000E+000	1.51600E+000	-1.26838E-004	12	...........	-327.56
[...]
	8513	8514	-3.10720E-001	4.94912E-002	0.00000E+000	-3.11000E-001	-1.25588E-004	11	...........	-327.56
	8537	8538	-2.86816E-001	6.90461E-002	0.00000E+000	-2.87000E-001	-1.26821E-004	11	...........	-327.56
	8561	8562	-2.62866E-001	8.81205E-002	0.00000E+000	-2.63000E-001	-1.29655E-004	11	...........	-327.56
	8585	8586	-2.38913E-001	1.00305E-001	0.00000E+000	-2.39000E-001	-1.31371E-004	11	...........	-327.56
	8609	8610	-2.14945E-001	1.14077E-001	0.00000E+000	-2.15000E-001	-1.29521E-004	11	...........	-327.56
	8633	8634	-1.91045E-001	1.39818E-001	0.00000E+000	-1.91000E-001	-1.30138E-004	11	...........	-327.56
	8657	8658	-1.66996E-001	1.46632E-001	0.00000E+000	-1.67000E-001	-1.29655E-004	11	...........	-327.56
	8681	8682	-1.43018E-001	1.56267E-001	0.00000E+000	-1.43000E-001	-1.26871E-004	11	...........	-327.56
	8705	8706	-1.19038E-001	1.66625E-001	0.00000E+000	-1.19000E-001	-1.26771E-004	11	...........	-327.56
	8729	8730	-9.51278E-002	1.74114E-001	0.00000E+000	-9.50000E-002	-1.27421E-004	11	...........	-327.56
	8753	8754	-7.11441E-002	1.79632E-001	0.00000E+000	-7.10000E-002	-1.27655E-004	11	...........	-327.56
	8777	8778	-4.71646E-002	1.86256E-001	0.00000E+000	-4.70000E-002	-1.26621E-004	11	...........	-327.56
	8801	8802	-2.31935E-002	1.94210E-001	0.00000E+000	-2.30000E-002	-1.26305E-004	11	...........	-327.56
	8825	8826	5.45181E-004	2.04658E-001	0.00000E+000	1.00005E-003	-1.23771E-004	11	...........	-327.56
	8849	8850	2.45076E-002	2.15817E-001	0.00000E+000	2.50000E-002	-1.24205E-004	11	...........	-327.56
	8873	8874	4.84593E-002	2.29263E-001	0.00000E+000	4.90000E-002	-1.25388E-004	11	...........	-327.56
	8897	8898	7.24086E-002	2.45966E-001	0.00000E+000	7.30000E-002	-1.25371E-004	11	...........	-327.56
	8921	8922	9.63520E-002	2.68779E-001	0.00000E+000	9.70000E-002	-1.21655E-004	11	...........	-327.56
	8945	8946	1.20576E-001	2.95369E-001	0.00000E+000	1.21000E-001	-1.25321E-004	12	...........	-327.56
	8969	8970	1.44534E-001	3.20265E-001	0.00000E+000	1.45000E-001	-1.27705E-004	12	...........	-327.56
	8993	8994	1.68473E-001	3.43050E-001	0.00000E+000	1.69000E-001	-1.27805E-004	12	...........	-327.56
	9017	9018	1.92454E-001	3.57393E-001	0.00000E+000	1.93000E-001	-1.27005E-004	12	...........	-327.56
	9041	9042	2.16520E-001	3.67899E-001	0.00000E+000	2.17000E-001	-1.25505E-004	12	...........	-327.56
	9065	9066	2.40491E-001	3.71520E-001	0.00000E+000	2.41000E-001	-1.24638E-004	12	...........	-327.56
	9089	9090	2.64462E-001	3.76485E-001	0.00000E+000	2.65000E-001	-1.26588E-004	12	...........	-327.56
	9113	9114	2.88449E-001	3.88114E-001	0.00000E+000	2.89000E-001	-1.22971E-004	12	...........	-327.56
	9137	9138	3.12386E-001	4.03474E-001	0.00000E+000	3.13000E-001	-1.25855E-004	12	...........	-327.56
	9161	9162	3.36345E-001	4.24880E-001	0.00000E+000	3.37000E-001	-1.26905E-004	12	...........	-327.56
	9185	9186	3.60304E-001	4.40698E-001	0.00000E+000	3.61000E-001	-1.26221E-004	12	...........	-327.56
	9209	9210	3.84259E-001	4.73178E-001	0.00000E+000	3.85000E-001	-1.27138E-004	12	...........	-327.56
	9233	9234	4.08228E-001	5.00608E-001	0.00000E+000	4.09000E-001	-1.28655E-004	12	...........	-327.56
	9257	9258	4.32205E-001	5.29406E-001	0.00000E+000	4.33000E-001	-1.26971E-004	12	...........	-327.56
	9281	9282	4.56181E-001	5.43789E-001	0.00000E+000	4.57000E-001	-1.29271E-004	12	...........	-327.56
	9305	9306	4.80141E-001	5.74536E-001	0.00000E+000	4.81000E-001	-1.30371E-004	12	...........	-327.56
	9329	9330	5.04081E-001	6.24459E-001	0.00000E+000	5.05000E-001	-1.29788E-004	12	...........	-327.56
	9353	9354	5.27982E-001	6.63065E-001	0.00000E+000	5.29000E-001	-1.28071E-004	12	...........	-327.56
	9377	9378	5.51950E-001	6.78334E-001	0.00000E+000	5.53000E-001	-1.29605E-004	12	...........	-327.56
	9401	9402	5.75988E-001	7.08578E-001	0.00000E+000	5.77000E-001	-1.29588E-004	12	...........	-327.56
	9425	9426	5.99964E-001	7.20689E-001	0.00000E+000	6.01000E-001	-1.30955E-004	12	...........	-327.56
	9449	9450	6.23943E-001	7.22166E-001	0.00000E+000	6.25000E-001	-1.28755E-004	12	...........	-327.56
	9473	9474	6.47935E-001	7.15278E-001	0.00000E+000	6.49000E-001	-1.28671E-004	12	...........	-327.56
	9497	9498	6.71931E-001	6.90567E-001	0.00000E+000	6.73000E-001	-1.28988E-004	12	...........	-327.56
	9521	9522	6.95932E-001	6.70855E-001	0.00000E+000	6.97000E-001	-1.28888E-004	12	...........	-327.56
	9545	9546	7.19909E-001	6.33727E-001	0.00000E+000	7.21000E-001	-1.27721E-004	12	...........	-327.56
	9569	9570	7.43926E-001	5.91465E-001	0.00000E+000	7.45000E-001	-1.28255E-004	12	...........	-327.56
	9593	9594	7.67921E-001	5.48187E-001	0.00000E+000	7.69000E-001	-1.27655E-004	12	...........	-327.56
	9617	9618	7.91931E-001	4.88881E-001	0.00000E+000	7.93000E-001	-1.30605E-004	12	...........	-327.56
	9641	9642	8.15943E-001	4.33144E-001	0.00000E+000	8.17000E-001	-1.29571E-004	12	...........	-327.56
	9665	9666	8.39940E-001	3.79805E-001	0.00000E+000	8.41000E-001	-1.27388E-004	12	...........	-327.56
	9689	9690	8.63943E-001	3.34567E-001	0.00000E+000	8.65000E-001	-1.27988E-004	12	...........	-327.56
	9713	9714	8.87939E-001	2.98390E-001	0.00000E+000	8.89000E-001	-1.32288E-004	12	...........	-327.56
	9737	9738	9.11942E-001	2.72956E-001	0.00000E+000	9.13000E-001	-1.30438E-004	12	...........	-327.56
	9761	9762	9.35924E-001	2.55182E-001	0.00000E+000	9.37000E-001	-1.31621E-004	12	...........	-327.56
	9785	9786	9.59917E-001	2.42550E-001	0.00000E+000	9.61000E-001	-1.27738E-004	12	...........	-327.56
	9809	9810	9.83659E-001	2.31836E-001	0.00000E+000	9.85000E-001	-1.25138E-004	11	...........	-327.56
	9833	9834	1.00766E+000	2.22862E-001	0.00000E+000	1.00900E+000	-1.25738E-004	11	...........	-327.56
	9857	9858	1.03163E+000	2.16306E-001	0.00000E+000	1.03300E+000	-1.24588E-004	11	...........	-327.56
	9881	9882	1.05559E+000	2.33323E-001	0.00000E+000	1.05700E+000	-1.24488E-004	11	...........	-327.56
	9905	9906	1.07956E+000	2.42277E-001	0.00000E+000	1.08100E+000	-1.27721E-004	11	...........	-327.56
	9929	9930	1.10379E+000	2.78185E-001	0.00000E+000	1.10500E+000	-1.24538E-004	12	...........	-327.56
	9953	9954	1.12769E+000	3.08209E-001	0.00000E+000	1.12900E+000	-1.28338E-004	12	...........	-327.56
	9977	9978	1.15162E+000	3.51576E-001	0.00000E+000	1.15300E+000	-1.28738E-004	12	...........	-327.56
	10001	10002	1.17558E+000	4.03077E-001	0.00000E+000	1.17700E+000	-1.31005E-004	12	...........	-327.56
	10025	10026	1.19952E+000	4.58486E-001	0.00000E+000	1.20100E+000	-1.29988E-004	12	...........	-327.56
	10049	10050	1.22347E+000	5.12953E-001	0.00000E+000	1.22500E+000	-1.29405E-004	12	...........	-327.56
	10073	10074	1.24743E+000	5.71402E-001	0.00000E+000	1.24900E+000	-1.26588E-004	12	...........	-327.56
	10097	10098	1.27140E+000	5.90634E-001	0.00000E+000	1.27300E+000	-1.30988E-004	12	...........	-327.56
	10121	10122	1.29527E+000	7.07911E-001	0.00000E+000	1.29700E+000	-1.27721E-004	12	...........	-327.56
	10145	10146	1.31920E+000	7.81463E-001	0.00000E+000	1.32100E+000	-1.31371E-004	12	...........	-327.56
	10169	10170	1.34320E+000	8.42138E-001	0.00000E+000	1.34500E+000	-1.28138E-004	12	...........	-327.56
	10193	10194	1.36713E+000	9.49663E-001	0.00000E+000	1.36900E+000	-1.25971E-004	12	...........	-327.56
	10217	10218	1.39107E+000	1.00453E+000	0.00000E+000	1.39300E+000	-1.22921E-004	12	...........	-327.56
	10241	10242	1.41500E+000	1.11844E+000	0.00000E+000	1.41700E+000	-1.24538E-004	12	...........	-327.56
	10265	10266	1.43892E+000	1.17677E+000	0.00000E+000	1.44100E+000	-1.22655E-004	12	...........	-327.56
	10289	10290	1.46285E+000	1.29053E+000	0.00000E+000	1.46500E+000	-1.27771E-004	12	...........	-327.56
	10313	10314	1.48685E+000	1.25079E+000	0.00000E+000	1.48900E+000	-1.23755E-004	12	...........	-327.56
	10337	10338	1.51075E+000	1.40066E+000	0.00000E+000	1.51300E+000	-1.25121E-004	12	...........	-327.56
	10361	10362	1.53470E+000	1.49652E+000	0.00000E+000	1.53700E+000	-1.26521E-004	12	...........	-327.56
	10385	10386	1.55861E+000	1.56236E+000	0.00000E+000	1.56100E+000	-1.26321E-004	12	...........	-327.56
	10409	10410	1.58259E+000	1.62747E+000	0.00000E+000	1.58500E+000	-1.27355E-004	12	...........	-327.56
	10433	10434	1.60654E+000	1.67928E+000	0.00000E+000	1.60900E+000	-1.27871E-004	12	...........	-327.56
	10457	10458	1.63050E+000	1.73112E+000	0.00000E+000	1.63300E+000	-1.30171E-004	12	...........	-327.56
	10481	10482	1.65442E+000	1.80580E+000	0.00000E+000	1.65700E+000	-1.26655E-004	12	...........	-327.56
	10505	10506	1.67837E+000	1.93556E+000	0.00000E+000	1.68100E+000	-1.26221E-004	12	...........	-327.56
	10524	10525	1.69746E+000	1.97583E+000	0.00000E+000	1.70000E+000	-1.25771E-004	12	...........	-327.56