File: testing/data/240902_10_MCL13_cswWE_CV2_750C_CO2.DTA
EXPLAIN
TAG	CV
TITLE	LABEL	Cyclic Voltammetry	Test Identifier
DATE	LABEL	9/3/2024	Date
TIME	LABEL	3:51:18	Time
NOTES	NOTES	5	Notes...
	cswWE - carbon steel wire
cspWE - carbon steel plate 2x2 tapered

Carbon steel plate counter electrode
Carbon steel wire reference electrode
PSTAT	PSTAT	REF3000-48128	Potentiostat
VINIT	POTEN	0.00000E+000	T	Initial E (V)
VLIMIT1	POTEN	1.70000E+000	F	Scan Limit 1 (V)
VLIMIT2	POTEN	-7.00000E-001	F	Scan Limit 2 (V)
VFINAL	POTEN	1.70000E+000	F	Final E (V)
SCANRATE	QUANT	2.00000E+000	Scan Rate (mV/s)
STEPSIZE	QUANT	1.00000E+000	Step Size (mV)
CYCLES	IQUANT	2	Cycles (#)
IMODE	SELECTOR	0	I/E Range Mode
IRANGE	QUANT	3.00000E-001	Max Current (mA)
AREA	QUANT	1.00000E+000	Sample Area (cm^2)
EQDELAY	QUANT	0.00000E+000	Equil. Time (s)
IRCOMP	SELECTOR	0	IRComp
PFCOR	QUANT	5.00000E+001	PF Corr. (ohm)
SAMPLINGMODE	SELECTOR	1	Sampling Mode
EOC	QUANT	0.2158838	Open Circuit (V)
ELECTRODETYPE	SELECTOR	0	Electrode Type
STRIPPING	TOGGLE	F	Used for Stripping
SEQUENCER	TOGGLE	TRUE	Run as Sequence
PSTATMODEL	IQUANT	5	Pstat Model
PSTATSECTION	LABEL	REF3000-48128	Pstat Section
PSTATSERIALNO	LABEL	48128	Pstat Serial Number
CTRLMODE	IQUANT	1	Control Mode
ELECTROMETER	IQUANT	0	RE=0 or CS=1
IESTAB	IQUANT	2	I/E Stability
CASPEED	IQUANT	4	Control Amp Speed
CONVENTION	IQUANT	1	Current Convention
ICHRANGE	IQUANT	2	Ich Range
ICHRANGEMODE	TOGGLE	F	Ich Auto Range
ICHOFFSETENABLE	TOGGLE	F	Ich Offset Enable
ICHOFFSET	QUANT	0	Ich Offset (V)
ICHFILTER	IQUANT	3	Ich Filter
VCHRANGE	IQUANT	2	Vch Range
VCHRANGEMODE	TOGGLE	F	Vch Auto Range
VCHOFFSETENABLE	TOGGLE	F	Vch Offset Enable
VCHOFFSET	QUANT	0	Vch Offset (V)
VCHFILTER	IQUANT	3	Vch Filter
ACHRANGE	IQUANT	2	Ach Range
ACHOFFSETENABLE	TOGGLE	F	Ach Offset Enable
ACHOFFSET	QUANT	0	Ach Offset (V)
ACHFILTER	IQUANT	1	Ach Filter
IERANGELOWERLIMIT	IQUANT	2	I/E Range Lower Limit
IERANGEMODE	TOGGLE	T	I/E AutoRange
IERANGE	IQUANT	9	I/E Range
POSFEEDENABLE	TOGGLE	F	Positive Feedback IR Comp
POSFEEDRESISTANCE	QUANT	0	Positive Feedback Resistance (ohm)
ACHSELECT	IQUANT	4	Ach Select
SENSECABLEID	IQUANT	14	Sense Cable ID
PWRCABLEID	IQUANT	7	Power Cable ID
DCCALDATE	LABEL	8/16/2024	DC Calibration Date
ACCALDATE	LABEL	8/16/2024	AC Calibration Date
THERMOSELECT	IQUANT	1	Thermo Select
FRAMEWORKVERSION	LABEL	7.10.3	Framework Version
INSTRUMENTVERSION	LABEL	4.91	Instrument Version
COMMVERSION	LABEL	5.10	Communications Version
CPUPLDVERSION	LABEL	6.00	CPU PLD Version
CTRLPLDVERSION	LABEL	3.21	CTRL PLD Version
PSTATPLDVERSION	LABEL	0.00	PSTAT PLD Version
COMPLIANCEVOLTAGE	IQUANT	0	Compliance Voltage
CURVE1	TABLE
	Pt	T	Vf	Im	Vu	Sig	Ach	IERange	Over	Temp
	#	s	V vs. Ref.	A	V	V	V	#	bits	deg C
	0	0.5	2.15347E-001	2.13050E-003	0.00000E+000	2.15900E-001	-9.53881E-005	9	...........	-327.56
	40	20.5	2.55384E-001	1.40683E-002	0.00000E+000	2.55900E-001	-9.42214E-005	10	...........	-327.56
	80	40.5	2.95264E-001	1.59062E-002	0.00000E+000	2.95900E-001	-1.08221E-004	10	...........	-327.56
	120	60.5	3.35297E-001	1.50184E-002	0.00000E+000	3.35900E-001	-1.04455E-004	10	...........	-327.56
	160	80.5	3.75244E-001	1.27537E-002	0.00000E+000	3.75900E-001	-1.03521E-004	10	...........	-327.56
	200	100.5	4.15293E-001	1.29367E-002	0.00000E+000	4.15900E-001	-1.04888E-004	10	...........	-327.56
	240	120.5	4.55193E-001	1.36459E-002	0.00000E+000	4.55900E-001	-1.03688E-004	10	...........	-327.56
	280	140.5	4.95231E-001	1.38367E-002	0.00000E+000	4.95900E-001	-1.03255E-004	10	...........	-327.56
	320	160.5	5.35103E-001	1.40081E-002	0.00000E+000	5.35900E-001	-1.00855E-004	10	...........	-327.56
	360	180.5	5.75112E-001	1.41304E-002	0.00000E+000	5.75900E-001	-9.99548E-005	10	...........	-327.56
	400	200.5	6.15057E-001	1.42943E-002	0.00000E+000	6.15900E-001	-9.70548E-005	10	...........	-327.56
	440	220.5	6.54998E-001	1.41893E-002	0.00000E+000	6.55900E-001	-1.00755E-004	10	...........	-327.56
	480	240.5	6.95034E-001	1.39585E-002	0.00000E+000	6.95900E-001	-1.02288E-004	10	...........	-327.56
	520	260.5	7.34916E-001	1.35582E-002	0.00000E+000	7.35900E-001	-1.05688E-004	10	...........	-327.56
	560	280.5	7.74979E-001	1.30458E-002	0.00000E+000	7.75900E-001	-1.00355E-004	10	...........	-327.56
	600	300.5	8.14893E-001	1.26497E-002	0.00000E+000	8.15900E-001	-1.02488E-004	10	...........	-327.56
	640	320.5	8.54885E-001	1.25602E-002	0.00000E+000	8.55900E-001	-1.05621E-004	10	...........	-327.56
	680	340.5	8.94787E-001	1.32239E-002	0.00000E+000	8.95900E-001	-1.01188E-004	10	...........	-327.56
	720	360.5	9.34657E-001	1.51362E-002	0.00000E+000	9.35900E-001	-1.00955E-004	10	...........	-327.56
	760	380.5	9.74641E-001	2.03662E-002	0.00000E+000	9.75900E-001	-1.02755E-004	10	...........	-327.56
	800	400.5	1.01478E+000	2.80835E-002	0.00000E+000	1.01590E+000	-1.00388E-004	11	...........	-327.56
	840	420.5	1.05479E+000	3.58045E-002	0.00000E+000	1.05590E+000	-1.01955E-004	11	...........	-327.56
	880	440.5	1.09470E+000	3.97847E-002	0.00000E+000	1.09590E+000	-1.02821E-004	11	...........	-327.56
	920	460.5	1.13471E+000	2.90989E-002	0.00000E+000	1.13590E+000	-1.03555E-004	11	...........	-327.56
	960	480.5	1.17466E+000	2.87551E-002	0.00000E+000	1.17590E+000	-1.01955E-004	11	...........	-327.56
	1000	500.5	1.21465E+000	4.27457E-002	0.00000E+000	1.21590E+000	-1.03688E-004	11	...........	-327.56
	1040	520.5	1.25456E+000	7.03911E-002	0.00000E+000	1.25590E+000	-1.01455E-004	11	...........	-327.56
	1080	540.5	1.29437E+000	1.15361E-001	0.00000E+000	1.29590E+000	-1.03188E-004	11	...........	-327.56
	1120	560.5	1.33430E+000	1.85794E-001	0.00000E+000	1.33590E+000	-1.02755E-004	11	...........	-327.56
	1160	580.5	1.37435E+000	2.73004E-001	0.00000E+000	1.37590E+000	-1.09288E-004	12	...........	-327.56
	1200	600.5	1.41433E+000	3.49871E-001	0.00000E+000	1.41590E+000	-1.02021E-004	12	...........	-327.56
	1240	620.5	1.45423E+000	4.30886E-001	0.00000E+000	1.45590E+000	-1.10621E-004	12	...........	-327.56
	1280	640.5	1.49416E+000	5.29825E-001	0.00000E+000	1.49590E+000	-1.02921E-004	12	...........	-327.56
	1320	660.5	1.53398E+000	6.54090E-001	0.00000E+000	1.53590E+000	-1.06888E-004	12	...........	-327.56
	1360	680.5	1.57388E+000	7.82720E-001	0.00000E+000	1.57590E+000	-1.03621E-004	12	...........	-327.56
	1400	700.5	1.61376E+000	8.97131E-001	0.00000E+000	1.61590E+000	-9.93214E-005	12	...........	-327.56
	1440	720.5	1.65360E+000	1.00841E+000	0.00000E+000	1.65590E+000	-1.03321E-004	12	...........	-327.56
	1480	740.5	1.69359E+000	1.11444E+000	0.00000E+000	1.69590E+000	-1.00255E-004	12	...........	-327.56
	1520	760.5	1.66161E+000	1.05243E+000	0.00000E+000	1.66390E+000	-1.02521E-004	12	...........	-327.56
	1560	780.5	1.62174E+000	9.67014E-001	0.00000E+000	1.62390E+000	-1.05621E-004	12	...........	-327.56
	1600	800.5	1.58179E+000	8.69494E-001	0.00000E+000	1.58390E+000	-1.06355E-004	12	...........	-327.56
	1640	820.5	1.54189E+000	7.76600E-001	0.00000E+000	1.54390E+000	-1.03788E-004	12	...........	-327.56
	1680	840.5	1.50197E+000	6.81128E-001	0.00000E+000	1.50390E+000	-1.04655E-004	12	...........	-327.56
	1720	860.5	1.46212E+000	5.89523E-001	0.00000E+000	1.46390E+000	-1.02688E-004	12	...........	-327.56
	1760	880.5	1.42221E+000	4.97174E-001	0.00000E+000	1.42390E+000	-1.05555E-004	12	...........	-327.56
	1800	900.5	1.38232E+000	4.06639E-001	0.00000E+000	1.38390E+000	-1.05988E-004	12	...........	-327.56
	1840	920.5	1.34238E+000	3.25520E-001	0.00000E+000	1.34390E+000	-1.02455E-004	12	...........	-327.56
	1880	940.5	1.30247E+000	2.53030E-001	0.00000E+000	1.30390E+000	-1.06055E-004	12	...........	-327.56
	1920	960.5	1.26238E+000	1.85899E-001	0.00000E+000	1.26390E+000	-1.02988E-004	11	...........	-327.56
	1960	980.5	1.22243E+000	1.22938E-001	0.00000E+000	1.22390E+000	-1.02388E-004	11	...........	-327.56
	2000	1000.5	1.18262E+000	7.54739E-002	0.00000E+000	1.18390E+000	-1.00988E-004	11	...........	-327.56
	2040	1020.5	1.14261E+000	4.73789E-002	0.00000E+000	1.14390E+000	-1.01421E-004	11	...........	-327.56
	2080	1040.5	1.10276E+000	2.83682E-002	0.00000E+000	1.10390E+000	-1.04421E-004	11	...........	-327.56
	2120	1060.5	1.06255E+000	2.02386E-002	0.00000E+000	1.06390E+000	-1.00955E-004	10	...........	-327.56
	2160	1080.5	1.02267E+000	1.39344E-002	0.00000E+000	1.02390E+000	-1.02255E-004	10	...........	-327.56
	2200	1100.5	9.82763E-001	1.12129E-002	0.00000E+000	9.83900E-001	-9.96548E-005	10	...........	-327.56
	2240	1120.5	9.42764E-001	9.97545E-003	0.00000E+000	9.43900E-001	-1.04455E-004	10	...........	-327.56
	2280	1140.5	9.02895E-001	9.51230E-003	0.00000E+000	9.03900E-001	-9.96881E-005	10	...........	-327.56
	2320	1160.5	8.62852E-001	9.13389E-003	0.00000E+000	8.63900E-001	-1.04855E-004	10	...........	-327.56
	2360	1180.5	8.22941E-001	8.89954E-003	0.00000E+000	8.23900E-001	-9.82214E-005	10	...........	-327.56
	2400	1200.5	7.82946E-001	8.70725E-003	0.00000E+000	7.83900E-001	-1.03255E-004	10	...........	-327.56
	2440	1220.5	7.43013E-001	8.72105E-003	0.00000E+000	7.43900E-001	-1.02788E-004	10	...........	-327.56
	2480	1240.5	7.03094E-001	8.76953E-003	0.00000E+000	7.03900E-001	-1.03421E-004	10	...........	-327.56
	2520	1260.5	6.63091E-001	7.96801E-003	0.00000E+000	6.63900E-001	-1.04255E-004	10	...........	-327.56
	2560	1280.5	6.23162E-001	7.64350E-003	0.00000E+000	6.23900E-001	-1.01821E-004	10	...........	-327.56
	2600	1300.5	5.83158E-001	7.23788E-003	0.00000E+000	5.83900E-001	-1.03555E-004	10	...........	-327.56
	2640	1320.5	5.43249E-001	6.72701E-003	0.00000E+000	5.43900E-001	-1.02521E-004	10	...........	-327.56
	2680	1340.5	5.03257E-001	5.71847E-003	0.00000E+000	5.03900E-001	-1.03255E-004	10	...........	-327.56
	2720	1360.5	4.63374E-001	4.79704E-003	0.00000E+000	4.63900E-001	-1.05721E-004	10	...........	-327.56
	2760	1380.5	4.23318E-001	3.59726E-003	0.00000E+000	4.23900E-001	-1.05155E-004	10	...........	-327.56
	2800	1400.5	3.83404E-001	2.59316E-003	0.00000E+000	3.83900E-001	-1.03655E-004	10	...........	-327.56
	2840	1420.5	3.43363E-001	1.07659E-003	0.00000E+000	3.43900E-001	-1.04721E-004	9	...........	-327.56
	2880	1440.5	3.03569E-001	-4.23434E-004	0.00000E+000	3.03900E-001	-1.08555E-004	9	...........	-327.56
	2920	1460.5	2.63885E-001	-2.34046E-003	0.00000E+000	2.63900E-001	-9.90881E-005	9	...........	-327.56
	2960	1480.5	2.23591E-001	-3.32643E-003	0.00000E+000	2.23900E-001	-1.05121E-004	10	...........	-327.56
	3000	1500.5	1.83709E-001	-3.78245E-003	0.00000E+000	1.83900E-001	-1.02321E-004	10	...........	-327.56
	3040	1520.5	1.43693E-001	-4.57463E-003	0.00000E+000	1.43900E-001	-1.01355E-004	10	...........	-327.56
	3080	1540.5	1.03783E-001	-6.00142E-003	0.00000E+000	1.03900E-001	-9.95881E-005	10	...........	-327.56
	3120	1560.5	6.38740E-002	-7.49745E-003	0.00000E+000	6.39000E-002	-1.00888E-004	10	...........	-327.56
	3160	1580.5	2.39049E-002	-8.69150E-003	0.00000E+000	2.39000E-002	-1.03355E-004	10	...........	-327.56
	3200	1600.5	-1.58214E-002	-9.50307E-003	0.00000E+000	-1.61000E-002	-1.03455E-004	10	...........	-327.56
	3240	1620.5	-5.58431E-002	-9.82836E-003	0.00000E+000	-5.61000E-002	-1.04721E-004	10	...........	-327.56
	3280	1640.5	-9.57753E-002	-1.03877E-002	0.00000E+000	-9.61000E-002	-1.00521E-004	10	...........	-327.56
	3320	1660.5	-1.35783E-001	-9.87205E-003	0.00000E+000	-1.36100E-001	-1.05555E-004	10	...........	-327.56
	3360	1680.5	-1.75717E-001	-8.88049E-003	0.00000E+000	-1.76100E-001	-1.02388E-004	10	...........	-327.56
	3400	1700.5	-2.15747E-001	-8.71380E-003	0.00000E+000	-2.16100E-001	-1.08688E-004	10	...........	-327.56
	3440	1720.5	-2.55675E-001	-9.34181E-003	0.00000E+000	-2.56100E-001	-1.03988E-004	10	...........	-327.56
	3480	1740.5	-2.95571E-001	-1.23261E-002	0.00000E+000	-2.96100E-001	-1.06288E-004	10	...........	-327.56
	3520	1760.5	-3.35450E-001	-2.02230E-002	0.00000E+000	-3.36100E-001	-9.42214E-005	10	...........	-327.56
	3560	1780.5	-3.75574E-001	-3.53108E-002	0.00000E+000	-3.76100E-001	-1.03555E-004	11	...........	-327.56
	3600	1800.5	-4.15582E-001	-6.12977E-002	0.00000E+000	-4.16100E-001	-1.01255E-004	11	...........	-327.56
	3640	1820.5	-4.55422E-001	-1.01408E-001	0.00000E+000	-4.56100E-001	-1.04021E-004	11	...........	-327.56
	3680	1840.5	-4.95411E-001	-1.36413E-001	0.00000E+000	-4.96100E-001	-1.04288E-004	11	...........	-327.56
	3720	1860.5	-5.35261E-001	-1.53410E-001	0.00000E+000	-5.36100E-001	-1.00588E-004	11	...........	-327.56
	3760	1880.5	-5.75279E-001	-1.84338E-001	0.00000E+000	-5.76100E-001	-1.00221E-004	11	...........	-327.56
	3800	1900.5	-6.15072E-001	-2.44141E-001	0.00000E+000	-6.16100E-001	-9.08548E-005	11	...........	-327.56
	3840	1920.5	-6.55259E-001	-2.94655E-001	0.00000E+000	-6.56100E-001	-1.04821E-004	12	...........	-327.56
	3880	1940.5	-6.95260E-001	-3.28727E-001	0.00000E+000	-6.96100E-001	-1.04488E-004	12	...........	-327.56
	3884	1942.5	-6.99252E-001	-3.26822E-001	0.00000E+000	-7.00100E-001	-1.04255E-004	12	...........	-327.56
CURVE2	TABLE
	Pt	T	Vf	Im	Vu	Sig	Ach	IERange	Over	Temp
	#	s	V vs. Ref.	A	V	V	V	#	bits	deg C
	3885	1943	-6.98158E-001	-3.22577E-001	0.00000E+000	-6.99000E-001	-1.04821E-004	12	...........	-327.56
	3934	1967.5	-6.49089E-001	-1.83700E-001	0.00000E+000	-6.50000E-001	-9.82548E-005	11	...........	-327.56
	3983	1992	-6.00216E-001	-1.11412E-001	0.00000E+000	-6.01000E-001	-1.06888E-004	11	...........	-327.56
	4032	2016.5	-5.51308E-001	-5.80100E-002	0.00000E+000	-5.52000E-001	-1.02521E-004	11	...........	-327.56
	4081	2041	-5.02182E-001	-2.17852E-002	0.00000E+000	-5.03000E-001	-9.60548E-005	10	...........	-327.56
	4130	2065.5	-4.53775E-001	2.17826E-002	0.00000E+000	-4.54000E-001	-1.01655E-004	10	...........	-327.56
	4179	2090	-4.04575E-001	3.96326E-004	0.00000E+000	-4.05000E-001	-1.05188E-004	9	...........	-327.56
	4228	2114.5	-3.55465E-001	-6.68573E-003	0.00000E+000	-3.56000E-001	-1.02155E-004	10	...........	-327.56
	4277	2139	-3.06562E-001	-7.81493E-003	0.00000E+000	-3.07000E-001	-1.03521E-004	10	...........	-327.56
	4326	2163.5	-2.57644E-001	-4.23954E-003	0.00000E+000	-2.58000E-001	-1.05221E-004	10	...........	-327.56
	4375	2188	-2.08820E-001	6.18610E-003	0.00000E+000	-2.09000E-001	-1.10721E-004	10	...........	-327.56
	4424	2212.5	-1.59941E-001	1.08545E-002	0.00000E+000	-1.60000E-001	-1.04221E-004	10	...........	-327.56
	4473	2237	-1.11095E-001	2.05791E-002	0.00000E+000	-1.11000E-001	-1.02788E-004	10	...........	-327.56
	4522	2261.5	-6.21922E-002	2.05987E-002	0.00000E+000	-6.20000E-002	-1.03688E-004	10	...........	-327.56
	4571	2286	-1.29545E-002	4.77599E-002	0.00000E+000	-1.30000E-002	-1.04421E-004	11	...........	-327.56
	4620	2310.5	3.57310E-002	9.79647E-002	0.00000E+000	3.60000E-002	-1.04621E-004	11	...........	-327.56
	4669	2335	8.46040E-002	1.63079E-001	0.00000E+000	8.50000E-002	-1.04521E-004	11	...........	-327.56
	4718	2359.5	1.33407E-001	2.29666E-001	0.00000E+000	1.34000E-001	-1.00655E-004	11	...........	-327.56
	4767	2384	1.82593E-001	2.73100E-001	0.00000E+000	1.83000E-001	-1.04988E-004	12	...........	-327.56
	4816	2408.5	2.31525E-001	2.69187E-001	0.00000E+000	2.32000E-001	-1.09388E-004	12	...........	-327.56
	4865	2433	2.80299E-001	2.02888E-001	0.00000E+000	2.81000E-001	-1.04955E-004	11	...........	-327.56
	4914	2457.5	3.29271E-001	1.68401E-001	0.00000E+000	3.30000E-001	-1.00955E-004	11	...........	-327.56
	4963	2482	3.78229E-001	1.72933E-001	0.00000E+000	3.79000E-001	-1.06855E-004	11	...........	-327.56
	5012	2506.5	4.27313E-001	1.25218E-001	0.00000E+000	4.28000E-001	-1.04655E-004	11	...........	-327.56
	5061	2531	4.76273E-001	9.44559E-002	0.00000E+000	4.77000E-001	-1.06055E-004	11	...........	-327.56
	5110	2555.5	5.25219E-001	7.38355E-002	0.00000E+000	5.26000E-001	-1.03455E-004	11	...........	-327.56
	5159	2580	5.74314E-001	6.15116E-002	0.00000E+000	5.75000E-001	-1.05955E-004	11	...........	-327.56
	5208	2604.5	6.23286E-001	5.34407E-002	0.00000E+000	6.24000E-001	-1.11255E-004	11	...........	-327.56
	5257	2629	6.72265E-001	4.76605E-002	0.00000E+000	6.73000E-001	-1.02555E-004	11	...........	-327.56
	5306	2653.5	7.21175E-001	4.35513E-002	0.00000E+000	7.22000E-001	-1.07255E-004	11	...........	-327.56
	5355	2678	7.70159E-001	4.03022E-002	0.00000E+000	7.71000E-001	-1.05355E-004	11	...........	-327.56
	5404	2702.5	8.19120E-001	3.71268E-002	0.00000E+000	8.20000E-001	-1.06555E-004	11	...........	-327.56
	5453	2727	8.68035E-001	3.38833E-002	0.00000E+000	8.69000E-001	-1.05655E-004	11	...........	-327.56
	5502	2751.5	9.17008E-001	3.09802E-002	0.00000E+000	9.18000E-001	-1.07921E-004	11	...........	-327.56
	5551	2776	9.65931E-001	2.89331E-002	0.00000E+000	9.67000E-001	-1.07221E-004	11	...........	-327.56
	5600	2800.5	1.01489E+000	2.91857E-002	0.00000E+000	1.01600E+000	-1.06088E-004	11	...........	-327.56
	5649	2825	1.06390E+000	3.60752E-002	0.00000E+000	1.06500E+000	-1.10821E-004	11	...........	-327.56
	5698	2849.5	1.11284E+000	4.79870E-002	0.00000E+000	1.11400E+000	-1.06655E-004	11	...........	-327.56
	5747	2874	1.16176E+000	6.10091E-002	0.00000E+000	1.16300E+000	-1.05855E-004	11	...........	-327.56
	5796	2898.5	1.21068E+000	7.84592E-002	0.00000E+000	1.21200E+000	-1.06988E-004	11	...........	-327.56
	5845	2923	1.25960E+000	1.09679E-001	0.00000E+000	1.26100E+000	-1.03421E-004	11	...........	-327.56
	5894	2947.5	1.30846E+000	1.68873E-001	0.00000E+000	1.31000E+000	-1.00655E-004	11	...........	-327.56
	5943	2972	1.35722E+000	2.52339E-001	0.00000E+000	1.35900E+000	-1.02455E-004	11	...........	-327.56
	5992	2996.5	1.40637E+000	3.49427E-001	0.00000E+000	1.40800E+000	-1.08088E-004	12	...........	-327.56
[...]
	8985	4493	-3.98643E-001	6.80747E-002	0.00000E+000	-3.99000E-001	-1.07655E-004	11	...........	-327.56
	9010	4505.5	-3.73604E-001	3.26825E-002	0.00000E+000	-3.74000E-001	-1.06188E-004	11	...........	-327.56
	9035	4518	-3.48744E-001	1.43286E-002	0.00000E+000	-3.49000E-001	-1.09488E-004	10	...........	-327.56
	9060	4530.5	-3.23679E-001	6.76787E-003	0.00000E+000	-3.24000E-001	-1.05055E-004	10	...........	-327.56
	9085	4543	-2.98665E-001	3.33825E-003	0.00000E+000	-2.99000E-001	-1.06255E-004	10	...........	-327.56
	9110	4555.5	-2.73671E-001	2.54037E-003	0.00000E+000	-2.74000E-001	-1.08821E-004	10	...........	-327.56
	9135	4568	-2.48716E-001	3.56795E-003	0.00000E+000	-2.49000E-001	-1.08555E-004	10	...........	-327.56
	9160	4580.5	-2.23755E-001	5.95775E-003	0.00000E+000	-2.24000E-001	-1.03288E-004	10	...........	-327.56
	9185	4593	-1.98834E-001	8.06702E-003	0.00000E+000	-1.99000E-001	-1.03621E-004	10	...........	-327.56
	9210	4605.5	-1.73853E-001	1.01988E-002	0.00000E+000	-1.74000E-001	-1.05188E-004	10	...........	-327.56
	9235	4618	-1.48919E-001	1.41652E-002	0.00000E+000	-1.49000E-001	-1.06755E-004	10	...........	-327.56
	9260	4630.5	-1.23996E-001	1.76751E-002	0.00000E+000	-1.24000E-001	-1.05321E-004	10	...........	-327.56
	9285	4643	-9.90654E-002	1.87000E-002	0.00000E+000	-9.90000E-002	-1.09821E-004	10	...........	-327.56
	9310	4655.5	-7.41240E-002	2.07108E-002	0.00000E+000	-7.40000E-002	-1.04221E-004	10	...........	-327.56
	9335	4668	-4.92029E-002	2.48449E-002	0.00000E+000	-4.90000E-002	-1.06155E-004	10	...........	-327.56
	9360	4680.5	-2.39325E-002	3.25300E-002	0.00000E+000	-2.40000E-002	-1.09855E-004	11	...........	-327.56
	9385	4693	7.81306E-004	4.52507E-002	0.00000E+000	1.00002E-003	-1.07988E-004	11	...........	-327.56
	9410	4705.5	2.57658E-002	6.23737E-002	0.00000E+000	2.60000E-002	-1.07921E-004	11	...........	-327.56
	9435	4718	5.06902E-002	8.80788E-002	0.00000E+000	5.10000E-002	-1.10188E-004	11	...........	-327.56
	9460	4730.5	7.56235E-002	1.15316E-001	0.00000E+000	7.60000E-002	-1.05021E-004	11	...........	-327.56
	9485	4743	1.00591E-001	1.42970E-001	0.00000E+000	1.01000E-001	-1.07221E-004	11	...........	-327.56
	9510	4755.5	1.25452E-001	1.72311E-001	0.00000E+000	1.26000E-001	-1.02588E-004	11	...........	-327.56
	9535	4768	1.50404E-001	1.94443E-001	0.00000E+000	1.51000E-001	-1.04855E-004	11	...........	-327.56
	9560	4780.5	1.75377E-001	2.06762E-001	0.00000E+000	1.76000E-001	-1.03155E-004	11	...........	-327.56
	9585	4793	2.00370E-001	1.91975E-001	0.00000E+000	2.01000E-001	-1.03288E-004	11	...........	-327.56
	9610	4805.5	2.25466E-001	1.43291E-001	0.00000E+000	2.26000E-001	-1.04688E-004	11	...........	-327.56
	9635	4818	2.50473E-001	1.08077E-001	0.00000E+000	2.51000E-001	-1.07488E-004	11	...........	-327.56
	9660	4830.5	2.75453E-001	1.04481E-001	0.00000E+000	2.76000E-001	-1.07355E-004	11	...........	-327.56
	9685	4843	3.00422E-001	1.08742E-001	0.00000E+000	3.01000E-001	-1.05921E-004	11	...........	-327.56
	9710	4855.5	3.25355E-001	1.18134E-001	0.00000E+000	3.26000E-001	-1.07755E-004	11	...........	-327.56
	9735	4868	3.50339E-001	1.30078E-001	0.00000E+000	3.51000E-001	-1.10821E-004	11	...........	-327.56
	9760	4880.5	3.75267E-001	1.46446E-001	0.00000E+000	3.76000E-001	-1.06288E-004	11	...........	-327.56
	9785	4893	4.00301E-001	1.23196E-001	0.00000E+000	4.01000E-001	-1.04021E-004	11	...........	-327.56
	9810	4905.5	4.25346E-001	1.00205E-001	0.00000E+000	4.26000E-001	-1.07588E-004	11	...........	-327.56
	9835	4918	4.50319E-001	9.24002E-002	0.00000E+000	4.51000E-001	-1.06088E-004	11	...........	-327.56
	9860	4930.5	4.75303E-001	8.18193E-002	0.00000E+000	4.76000E-001	-1.06421E-004	11	...........	-327.56
	9885	4943	5.00301E-001	7.20510E-002	0.00000E+000	5.01000E-001	-1.07288E-004	11	...........	-327.56
	9910	4955.5	5.25230E-001	6.48466E-002	0.00000E+000	5.26000E-001	-1.07321E-004	11	...........	-327.56
	9935	4968	5.50318E-001	5.89776E-002	0.00000E+000	5.51000E-001	-1.03321E-004	11	...........	-327.56
	9960	4980.5	5.75317E-001	5.40454E-002	0.00000E+000	5.76000E-001	-1.10321E-004	11	...........	-327.56
	9985	4993	6.00319E-001	5.01510E-002	0.00000E+000	6.01000E-001	-1.07321E-004	11	...........	-327.56
	10010	5005.5	6.25293E-001	4.71757E-002	0.00000E+000	6.26000E-001	-1.08988E-004	11	...........	-327.56
	10035	5018	6.50283E-001	4.49206E-002	0.00000E+000	6.51000E-001	-1.07521E-004	11	...........	-327.56
	10060	5030.5	6.75269E-001	4.27084E-002	0.00000E+000	6.76000E-001	-1.04188E-004	11	...........	-327.56
	10085	5043	7.00253E-001	4.09816E-002	0.00000E+000	7.01000E-001	-1.09855E-004	11	...........	-327.56
	10110	5055.5	7.25199E-001	3.90950E-002	0.00000E+000	7.26000E-001	-1.06288E-004	11	...........	-327.56
	10135	5068	7.50200E-001	3.76528E-002	0.00000E+000	7.51000E-001	-1.07355E-004	11	...........	-327.56
	10160	5080.5	7.75166E-001	3.62537E-002	0.00000E+000	7.76000E-001	-1.08055E-004	11	...........	-327.56
	10185	5093	8.00165E-001	3.49213E-002	0.00000E+000	8.01000E-001	-1.06755E-004	11	...........	-327.56
	10210	5105.5	8.25077E-001	3.38437E-002	0.00000E+000	8.26000E-001	-1.05521E-004	11	...........	-327.56
	10235	5118	8.50083E-001	3.25863E-002	0.00000E+000	8.51000E-001	-1.06555E-004	11	...........	-327.56
	10260	5130.5	8.75100E-001	3.13468E-002	0.00000E+000	8.76000E-001	-1.10721E-004	11	...........	-327.56
	10285	5143	9.00047E-001	3.01055E-002	0.00000E+000	9.01000E-001	-1.06588E-004	11	...........	-327.56
	10310	5155.5	9.24999E-001	2.88568E-002	0.00000E+000	9.26000E-001	-1.09655E-004	11	...........	-327.56
	10335	5168	9.49963E-001	2.76728E-002	0.00000E+000	9.51000E-001	-1.08955E-004	11	...........	-327.56
	10360	5180.5	9.74977E-001	2.66102E-002	0.00000E+000	9.76000E-001	-1.08688E-004	11	...........	-327.56
	10385	5193	9.99956E-001	2.62401E-002	0.00000E+000	1.00100E+000	-1.06755E-004	11	...........	-327.56
	10410	5205.5	1.02490E+000	2.77265E-002	0.00000E+000	1.02600E+000	-1.07288E-004	11	...........	-327.56
	10435	5218	1.04988E+000	3.10326E-002	0.00000E+000	1.05100E+000	-1.06888E-004	11	...........	-327.56
	10460	5230.5	1.07485E+000	3.55043E-002	0.00000E+000	1.07600E+000	-1.06321E-004	11	...........	-327.56
	10485	5243	1.09983E+000	4.09446E-002	0.00000E+000	1.10100E+000	-1.06221E-004	11	...........	-327.56
	10510	5255.5	1.12477E+000	4.80567E-002	0.00000E+000	1.12600E+000	-1.09021E-004	11	...........	-327.56
	10535	5268	1.14973E+000	5.43818E-002	0.00000E+000	1.15100E+000	-1.09888E-004	11	...........	-327.56
	10560	5280.5	1.17470E+000	6.18173E-002	0.00000E+000	1.17600E+000	-1.04321E-004	11	...........	-327.56
	10585	5293	1.19966E+000	7.16221E-002	0.00000E+000	1.20100E+000	-1.08055E-004	11	...........	-327.56
	10610	5305.5	1.22462E+000	8.54668E-002	0.00000E+000	1.22600E+000	-1.04988E-004	11	...........	-327.56
	10635	5318	1.24958E+000	1.02541E-001	0.00000E+000	1.25100E+000	-1.05021E-004	11	...........	-327.56
	10660	5330.5	1.27453E+000	1.28165E-001	0.00000E+000	1.27600E+000	-1.06488E-004	11	...........	-327.56
	10685	5343	1.29945E+000	1.58860E-001	0.00000E+000	1.30100E+000	-1.03388E-004	11	...........	-327.56
	10710	5355.5	1.32436E+000	1.96771E-001	0.00000E+000	1.32600E+000	-1.05388E-004	11	...........	-327.56
	10735	5368	1.34922E+000	2.38834E-001	0.00000E+000	1.35100E+000	-1.02421E-004	11	...........	-327.56
	10760	5380.5	1.37442E+000	2.87720E-001	0.00000E+000	1.37600E+000	-1.05855E-004	12	...........	-327.56
	10785	5393	1.39939E+000	3.37188E-001	0.00000E+000	1.40100E+000	-1.08555E-004	12	...........	-327.56
	10810	5405.5	1.42433E+000	3.96048E-001	0.00000E+000	1.42600E+000	-1.08355E-004	12	...........	-327.56
	10835	5418	1.44926E+000	4.41161E-001	0.00000E+000	1.45100E+000	-1.09521E-004	12	...........	-327.56
	10860	5430.5	1.47421E+000	4.98019E-001	0.00000E+000	1.47600E+000	-1.11621E-004	12	...........	-327.56
	10885	5443	1.49914E+000	5.61023E-001	0.00000E+000	1.50100E+000	-1.13955E-004	12	...........	-327.56
	10910	5455.5	1.52409E+000	6.20703E-001	0.00000E+000	1.52600E+000	-1.09721E-004	12	...........	-327.56
	10935	5468	1.54900E+000	6.90713E-001	0.00000E+000	1.55100E+000	-1.04688E-004	12	...........	-327.56
	10960	5480.5	1.57401E+000	7.44299E-001	0.00000E+000	1.57600E+000	-1.03688E-004	12	...........	-327.56
	10985	5493	1.59898E+000	8.00631E-001	0.00000E+000	1.60100E+000	-1.02755E-004	12	...........	-327.56
	11010	5505.5	1.62392E+000	8.59945E-001	0.00000E+000	1.62600E+000	-1.04688E-004	12	...........	-327.56
	11035	5518	1.64883E+000	9.16191E-001	0.00000E+000	1.65100E+000	-1.11288E-004	12	...........	-327.56
	11060	5530.5	1.67381E+000	9.70377E-001	0.00000E+000	1.67600E+000	-1.04455E-004	12	...........	-327.56
	11084	5542.5	1.69776E+000	1.03517E+000	0.00000E+000	1.70000E+000	-1.06755E-004	12	...........	-327.56