File: testing/data/240902_11_MCL13_cswWE_CV2_750C_CO2.DTA
EXPLAIN
TAG	CV
TITLE	LABEL	Cyclic Voltammetry	Test Identifier
DATE	LABEL	9/3/2024	Date
TIME	LABEL	5:24:42	Time
NOTES	NOTES	5	Notes...
	cswWE - carbon steel wire
cspWE - carbon steel plate 2x2 tapered

Carbon steel plate counter electrode
Carbon steel wire reference electrode
PSTAT	PSTAT	REF3000-48128	Potentiostat
VINIT	POTEN	0.00000E+000	T	Initial E (V)
VLIMIT1	POTEN	1.70000E+000	F	Scan Limit 1 (V)
VLIMIT2	POTEN	-5.00000E-001	F	Scan Limit 2 (V)
VFINAL	POTEN	1.70000E+000	F	Final E (V)
SCANRATE	QUANT	2.00000E+000	Scan Rate (mV/s)
STEPSIZE	QUANT	1.00000E+000	Step Size (mV)
CYCLES	IQUANT	2	Cycles (#)
IMODE	SELECTOR	0	I/E Range Mode
IRANGE	QUANT	3.00000E-001	Max Current (mA)
AREA	QUANT	1.00000E+000	Sample Area (cm^2)
EQDELAY	QUANT	0.00000E+000	Equil. Time (s)
IRCOMP	SELECTOR	0	IRComp
PFCOR	QUANT	5.00000E+001	PF Corr. (ohm)
SAMPLINGMODE	SELECTOR	1	Sampling Mode
EOC	QUANT	0.2661975	Open Circuit (V)
ELECTRODETYPE	SELECTOR	0	Electrode Type
STRIPPING	TOGGLE	F	Used for Stripping
SEQUENCER	TOGGLE	TRUE	Run as Sequence
PSTATMODEL	IQUANT	5	Pstat Model
PSTATSECTION	LABEL	REF3000-48128	Pstat Section
PSTATSERIALNO	LABEL	48128	Pstat Serial Number
CTRLMODE	IQUANT	1	Control Mode
ELECTROMETER	IQUANT	0	RE=0 or CS=1
IESTAB	IQUANT	2	I/E Stability
CASPEED	IQUANT	4	Control Amp Speed
CONVENTION	IQUANT	1	Current Convention
ICHRANGE	IQUANT	2	Ich Range
ICHRANGEMODE	TOGGLE	F	Ich Auto Range
ICHOFFSETENABLE	TOGGLE	F	Ich Offset Enable
ICHOFFSET	QUANT	0	Ich Offset (V)
ICHFILTER	IQUANT	3	Ich Filter
VCHRANGE	IQUANT	2	Vch Range
VCHRANGEMODE	TOGGLE	F	Vch Auto Range
VCHOFFSETENABLE	TOGGLE	F	Vch Offset Enable
VCHOFFSET	QUANT	0	Vch Offset (V)
VCHFILTER	IQUANT	3	Vch Filter
ACHRANGE	IQUANT	2	Ach Range
ACHOFFSETENABLE	TOGGLE	F	Ach Offset Enable
ACHOFFSET	QUANT	0	Ach Offset (V)
ACHFILTER	IQUANT	1	Ach Filter
IERANGELOWERLIMIT	IQUANT	2	I/E Range Lower Limit
IERANGEMODE	TOGGLE	T	I/E AutoRange
IERANGE	IQUANT	9	I/E Range
POSFEEDENABLE	TOGGLE	F	Positive Feedback IR Comp
POSFEEDRESISTANCE	QUANT	0	Positive Feedback Resistance (ohm)
ACHSELECT	IQUANT	4	Ach Select
SENSECABLEID	IQUANT	14	Sense Cable ID
PWRCABLEID	IQUANT	7	Power Cable ID
DCCALDATE	LABEL	8/16/2024	DC Calibration Date
ACCALDATE	LABEL	8/16/2024	AC Calibration Date
THERMOSELECT	IQUANT	1	Thermo Select
FRAMEWORKVERSION	LABEL	7.10.3	Framework Version
INSTRUMENTVERSION	LABEL	4.91	Instrument Version
COMMVERSION	LABEL	5.10	Communications Version
CPUPLDVERSION	LABEL	6.00	CPU PLD Version
CTRLPLDVERSION	LABEL	3.21	CTRL PLD Version
PSTATPLDVERSION	LABEL	0.00	PSTAT PLD Version
COMPLIANCEVOLTAGE	IQUANT	0	Compliance Voltage
CURVE1	TABLE
	Pt	T	Vf	Im	Vu	Sig	Ach	IERange	Over	Temp
	#	s	V vs. Ref.	A	V	V	V	#	bits	deg C
	0	0.5	2.65709E-001	1.28877E-003	0.00000E+000	2.66200E-001	-9.76548E-005	9	...........	-327.56
	37	19	3.02679E-001	9.36579E-003	0.00000E+000	3.03200E-001	-1.01655E-004	10	...........	-327.56
	74	37.5	3.39632E-001	1.13062E-002	0.00000E+000	3.40200E-001	-1.06121E-004	10	...........	-327.56
	111	56	3.76543E-001	1.21863E-002	0.00000E+000	3.77200E-001	-1.05188E-004	10	...........	-327.56
	148	74.5	4.13562E-001	1.29327E-002	0.00000E+000	4.14200E-001	-1.05288E-004	10	...........	-327.56
	185	93	4.50453E-001	1.32818E-002	0.00000E+000	4.51200E-001	-1.07255E-004	10	...........	-327.56
	222	111.5	4.87487E-001	1.36628E-002	0.00000E+000	4.88200E-001	-1.06555E-004	10	...........	-327.56
	259	130	5.24442E-001	1.41400E-002	0.00000E+000	5.25200E-001	-1.06488E-004	10	...........	-327.56
	296	148.5	5.61419E-001	1.46985E-002	0.00000E+000	5.62200E-001	-1.04188E-004	10	...........	-327.56
	333	167	5.98370E-001	1.51176E-002	0.00000E+000	5.99200E-001	-1.06088E-004	10	...........	-327.56
	370	185.5	6.35301E-001	1.51231E-002	0.00000E+000	6.36200E-001	-1.08188E-004	10	...........	-327.56
	407	204	6.72317E-001	1.49459E-002	0.00000E+000	6.73200E-001	-1.03488E-004	10	...........	-327.56
	444	222.5	7.09238E-001	1.44688E-002	0.00000E+000	7.10200E-001	-1.05988E-004	10	...........	-327.56
	481	241	7.46246E-001	1.38695E-002	0.00000E+000	7.47200E-001	-1.03755E-004	10	...........	-327.56
	518	259.5	7.83158E-001	1.32936E-002	0.00000E+000	7.84200E-001	-1.04388E-004	10	...........	-327.56
	555	278	8.20139E-001	1.28219E-002	0.00000E+000	8.21200E-001	-1.05121E-004	10	...........	-327.56
	592	296.5	8.57145E-001	1.27505E-002	0.00000E+000	8.58200E-001	-1.05521E-004	10	...........	-327.56
	629	315	8.94062E-001	1.31110E-002	0.00000E+000	8.95200E-001	-1.08988E-004	10	...........	-327.56
	666	333.5	9.31068E-001	1.44267E-002	0.00000E+000	9.32200E-001	-1.03121E-004	10	...........	-327.56
	703	352	9.67947E-001	1.76307E-002	0.00000E+000	9.69200E-001	-1.08455E-004	10	...........	-327.56
	740	370.5	1.00486E+000	2.34012E-002	0.00000E+000	1.00620E+000	-1.06388E-004	10	...........	-327.56
	777	389	1.04203E+000	3.16819E-002	0.00000E+000	1.04320E+000	-1.05155E-004	11	...........	-327.56
	814	407.5	1.07904E+000	3.97121E-002	0.00000E+000	1.08020E+000	-1.01855E-004	11	...........	-327.56
	851	426	1.11595E+000	4.40791E-002	0.00000E+000	1.11720E+000	-1.08121E-004	11	...........	-327.56
	888	444.5	1.15292E+000	4.99266E-002	0.00000E+000	1.15420E+000	-1.08055E-004	11	...........	-327.56
	925	463	1.18987E+000	6.57826E-002	0.00000E+000	1.19120E+000	-1.00155E-004	11	...........	-327.56
	962	481.5	1.22677E+000	8.90285E-002	0.00000E+000	1.22820E+000	-1.04288E-004	11	...........	-327.56
	999	500	1.26377E+000	1.20993E-001	0.00000E+000	1.26520E+000	-1.05988E-004	11	...........	-327.56
	1036	518.5	1.30066E+000	1.69981E-001	0.00000E+000	1.30220E+000	-1.05255E-004	11	...........	-327.56
	1073	537	1.33751E+000	2.33836E-001	0.00000E+000	1.33920E+000	-1.00888E-004	11	...........	-327.56
	1110	555.5	1.37462E+000	3.13858E-001	0.00000E+000	1.37620E+000	-1.06221E-004	12	...........	-327.56
	1147	574	1.41158E+000	3.86697E-001	0.00000E+000	1.41320E+000	-1.06188E-004	12	...........	-327.56
	1184	592.5	1.44841E+000	4.59299E-001	0.00000E+000	1.45020E+000	-1.06588E-004	12	...........	-327.56
	1221	611	1.48540E+000	5.34256E-001	0.00000E+000	1.48720E+000	-1.02755E-004	12	...........	-327.56
	1258	629.5	1.52234E+000	6.14603E-001	0.00000E+000	1.52420E+000	-1.07121E-004	12	...........	-327.56
	1295	648	1.55916E+000	7.12140E-001	0.00000E+000	1.56120E+000	-1.06655E-004	12	...........	-327.56
	1332	666.5	1.59615E+000	7.96332E-001	0.00000E+000	1.59820E+000	-1.09121E-004	12	...........	-327.56
	1369	685	1.63303E+000	8.89858E-001	0.00000E+000	1.63520E+000	-1.07821E-004	12	...........	-327.56
	1406	703.5	1.66997E+000	9.71416E-001	0.00000E+000	1.67220E+000	-1.05288E-004	12	...........	-327.56
	1443	722	1.68890E+000	1.02303E+000	0.00000E+000	1.69120E+000	-1.08721E-004	12	...........	-327.56
	1480	740.5	1.65191E+000	9.51924E-001	0.00000E+000	1.65420E+000	-1.04521E-004	12	...........	-327.56
	1517	759	1.61507E+000	8.78825E-001	0.00000E+000	1.61720E+000	-1.03855E-004	12	...........	-327.56
	1554	777.5	1.57810E+000	7.98186E-001	0.00000E+000	1.58020E+000	-1.05688E-004	12	...........	-327.56
	1591	796	1.54122E+000	7.14341E-001	0.00000E+000	1.54320E+000	-1.07221E-004	12	...........	-327.56
	1628	814.5	1.50430E+000	6.39399E-001	0.00000E+000	1.50620E+000	-1.04088E-004	12	...........	-327.56
	1665	833	1.46744E+000	5.53134E-001	0.00000E+000	1.46920E+000	-1.07688E-004	12	...........	-327.56
	1702	851.5	1.43046E+000	4.73871E-001	0.00000E+000	1.43220E+000	-1.05021E-004	12	...........	-327.56
	1739	870	1.39359E+000	4.00547E-001	0.00000E+000	1.39520E+000	-1.07055E-004	12	...........	-327.56
	1776	888.5	1.35666E+000	3.32655E-001	0.00000E+000	1.35820E+000	-1.04088E-004	12	...........	-327.56
	1813	907	1.31971E+000	2.73164E-001	0.00000E+000	1.32120E+000	-1.11355E-004	12	...........	-327.56
	1850	925.5	1.28259E+000	2.12460E-001	0.00000E+000	1.28420E+000	-1.05321E-004	11	...........	-327.56
	1887	944	1.24567E+000	1.55128E-001	0.00000E+000	1.24720E+000	-1.04255E-004	11	...........	-327.56
	1924	962.5	1.20881E+000	1.08964E-001	0.00000E+000	1.21020E+000	-1.09321E-004	11	...........	-327.56
	1961	981	1.17184E+000	7.50442E-002	0.00000E+000	1.17320E+000	-1.05521E-004	11	...........	-327.56
	1998	999.5	1.13497E+000	5.13784E-002	0.00000E+000	1.13620E+000	-1.05288E-004	11	...........	-327.56
	2035	1018	1.09800E+000	3.39512E-002	0.00000E+000	1.09920E+000	-1.03755E-004	11	...........	-327.56
	2072	1036.5	1.06082E+000	2.32868E-002	0.00000E+000	1.06220E+000	-1.03688E-004	10	...........	-327.56
	2109	1055	1.02393E+000	1.64566E-002	0.00000E+000	1.02520E+000	-1.05721E-004	10	...........	-327.56
	2146	1073.5	9.87019E-001	1.20983E-002	0.00000E+000	9.88200E-001	-1.06055E-004	10	...........	-327.56
	2183	1092	9.50081E-001	9.82065E-003	0.00000E+000	9.51200E-001	-1.06888E-004	10	...........	-327.56
	2220	1110.5	9.13114E-001	8.65738E-003	0.00000E+000	9.14200E-001	-1.02888E-004	10	...........	-327.56
	2257	1129	8.76195E-001	8.22225E-003	0.00000E+000	8.77200E-001	-1.08855E-004	10	...........	-327.56
	2294	1147.5	8.39161E-001	7.90235E-003	0.00000E+000	8.40200E-001	-1.05988E-004	10	...........	-327.56
	2331	1166	8.02294E-001	7.71416E-003	0.00000E+000	8.03200E-001	-1.05521E-004	10	...........	-327.56
	2368	1184.5	7.65272E-001	7.77273E-003	0.00000E+000	7.66200E-001	-1.04955E-004	10	...........	-327.56
	2405	1203	7.28338E-001	7.73986E-003	0.00000E+000	7.29200E-001	-1.08955E-004	10	...........	-327.56
	2442	1221.5	6.91364E-001	7.67188E-003	0.00000E+000	6.92200E-001	-1.06921E-004	10	...........	-327.56
	2479	1240	6.54351E-001	7.18170E-003	0.00000E+000	6.55200E-001	-1.07221E-004	10	...........	-327.56
	2516	1258.5	6.17481E-001	6.49554E-003	0.00000E+000	6.18200E-001	-1.05221E-004	10	...........	-327.56
	2553	1277	5.80432E-001	5.95723E-003	0.00000E+000	5.81200E-001	-1.08155E-004	10	...........	-327.56
	2590	1295.5	5.43535E-001	5.27662E-003	0.00000E+000	5.44200E-001	-1.05155E-004	10	...........	-327.56
	2627	1314	5.06587E-001	4.54439E-003	0.00000E+000	5.07200E-001	-1.10821E-004	10	...........	-327.56
	2664	1332.5	4.69662E-001	3.42137E-003	0.00000E+000	4.70200E-001	-1.08888E-004	10	...........	-327.56
	2701	1351	4.32380E-001	2.36498E-003	0.00000E+000	4.33200E-001	-1.04421E-004	9	...........	-327.56
	2738	1369.5	3.95547E-001	1.54847E-003	0.00000E+000	3.96200E-001	-1.06721E-004	9	...........	-327.56
	2775	1388	3.58656E-001	4.39976E-004	0.00000E+000	3.59200E-001	-1.05555E-004	9	...........	-327.56
	2812	1406.5	3.21814E-001	-9.74515E-004	0.00000E+000	3.22200E-001	-1.11321E-004	9	...........	-327.56
	2849	1425	2.85187E-001	-2.67719E-003	0.00000E+000	2.85200E-001	-9.10881E-005	9	...........	-327.56
	2886	1443.5	2.47929E-001	-4.21873E-003	0.00000E+000	2.48200E-001	-1.09321E-004	10	...........	-327.56
	2923	1462	2.10971E-001	-4.94309E-003	0.00000E+000	2.11200E-001	-1.05388E-004	10	...........	-327.56
	2960	1480.5	1.73954E-001	-5.74278E-003	0.00000E+000	1.74200E-001	-1.06255E-004	10	...........	-327.56
	2997	1499	1.37059E-001	-7.02832E-003	0.00000E+000	1.37200E-001	-1.04288E-004	10	...........	-327.56
	3034	1517.5	1.00102E-001	-7.98374E-003	0.00000E+000	1.00200E-001	-1.06955E-004	10	...........	-327.56
	3071	1536	6.31613E-002	-9.04316E-003	0.00000E+000	6.32001E-002	-1.06421E-004	10	...........	-327.56
	3108	1554.5	2.61723E-002	-9.46611E-003	0.00000E+000	2.62001E-002	-1.04721E-004	10	...........	-327.56
	3145	1573	-1.06423E-002	-1.01782E-002	0.00000E+000	-1.07999E-002	-1.09221E-004	10	...........	-327.56
	3182	1591.5	-4.75468E-002	-1.14555E-002	0.00000E+000	-4.77999E-002	-1.07121E-004	10	...........	-327.56
	3219	1610	-8.45671E-002	-1.16255E-002	0.00000E+000	-8.47999E-002	-1.09588E-004	10	...........	-327.56
	3256	1628.5	-1.21439E-001	-1.09646E-002	0.00000E+000	-1.21800E-001	-1.07488E-004	10	...........	-327.56
	3293	1647	-1.58463E-001	-1.01943E-002	0.00000E+000	-1.58800E-001	-1.06321E-004	10	...........	-327.56
	3330	1665.5	-1.95418E-001	-1.01452E-002	0.00000E+000	-1.95800E-001	-1.07188E-004	10	...........	-327.56
	3367	1684	-2.32413E-001	-1.04729E-002	0.00000E+000	-2.32800E-001	-1.07421E-004	10	...........	-327.56
	3404	1702.5	-2.69352E-001	-1.16536E-002	0.00000E+000	-2.69800E-001	-1.06688E-004	10	...........	-327.56
	3441	1721	-3.06274E-001	-1.52097E-002	0.00000E+000	-3.06800E-001	-1.04021E-004	10	...........	-327.56
	3478	1739.5	-3.43196E-001	-2.20189E-002	0.00000E+000	-3.43800E-001	-9.77214E-005	10	...........	-327.56
	3515	1758	-3.80321E-001	-3.23586E-002	0.00000E+000	-3.80800E-001	-1.07155E-004	11	...........	-327.56
	3552	1776.5	-4.17313E-001	-5.39988E-002	0.00000E+000	-4.17800E-001	-1.11655E-004	11	...........	-327.56
	3589	1795	-4.54157E-001	-9.46623E-002	0.00000E+000	-4.54800E-001	-1.07955E-004	11	...........	-327.56
	3626	1813.5	-4.91171E-001	-1.15917E-001	0.00000E+000	-4.91800E-001	-1.07388E-004	11	...........	-327.56
	3634	1817.5	-4.99135E-001	-1.19733E-001	0.00000E+000	-4.99800E-001	-1.06455E-004	11	...........	-327.56
CURVE2	TABLE
	Pt	T	Vf	Im	Vu	Sig	Ach	IERange	Over	Temp
	#	s	V vs. Ref.	A	V	V	V	#	bits	deg C
	3635	1818	-4.98421E-001	-1.16996E-001	0.00000E+000	-4.99000E-001	-1.07588E-004	11	...........	-327.56
	3680	1840.5	-4.53486E-001	-4.33361E-002	0.00000E+000	-4.54000E-001	-1.09688E-004	11	...........	-327.56
	3725	1863	-4.08419E-001	-1.22355E-002	0.00000E+000	-4.09000E-001	-1.09321E-004	10	...........	-327.56
	3770	1885.5	-3.63599E-001	-2.94665E-003	0.00000E+000	-3.64000E-001	-1.08955E-004	10	...........	-327.56
	3815	1908	-3.18946E-001	1.87419E-003	0.00000E+000	-3.19000E-001	-1.05221E-004	9	...........	-327.56
	3860	1930.5	-2.73729E-001	4.91070E-003	0.00000E+000	-2.74000E-001	-1.05588E-004	10	...........	-327.56
	3905	1953	-2.28825E-001	7.68376E-003	0.00000E+000	-2.29000E-001	-1.08288E-004	10	...........	-327.56
	3950	1975.5	-1.83923E-001	1.05897E-002	0.00000E+000	-1.84000E-001	-1.06355E-004	10	...........	-327.56
	3995	1998	-1.39045E-001	1.38684E-002	0.00000E+000	-1.39000E-001	-1.08655E-004	10	...........	-327.56
	4040	2020.5	-9.40494E-002	1.60123E-002	0.00000E+000	-9.40000E-002	-1.04488E-004	10	...........	-327.56
	4085	2043	-4.91398E-002	1.94439E-002	0.00000E+000	-4.90000E-002	-1.05255E-004	10	...........	-327.56
	4130	2065.5	-4.27256E-003	2.63037E-002	0.00000E+000	-3.99995E-003	-1.04855E-004	10	...........	-327.56
	4175	2088	4.07356E-002	3.94657E-002	0.00000E+000	4.10000E-002	-1.08821E-004	11	...........	-327.56
	4220	2110.5	8.57498E-002	5.30342E-002	0.00000E+000	8.60000E-002	-1.11788E-004	11	...........	-327.56
	4265	2133	1.30674E-001	5.23659E-002	0.00000E+000	1.31000E-001	-1.10388E-004	11	...........	-327.56
	4310	2155.5	1.75597E-001	4.67480E-002	0.00000E+000	1.76000E-001	-1.07755E-004	11	...........	-327.56
	4355	2178	2.20558E-001	5.02771E-002	0.00000E+000	2.21000E-001	-1.09721E-004	11	...........	-327.56
	4400	2200.5	2.65568E-001	5.67624E-002	0.00000E+000	2.66000E-001	-1.10021E-004	11	...........	-327.56
	4445	2223	3.10476E-001	6.50182E-002	0.00000E+000	3.11000E-001	-1.11921E-004	11	...........	-327.56
	4490	2245.5	3.55403E-001	7.63689E-002	0.00000E+000	3.56000E-001	-1.07955E-004	11	...........	-327.56
	4535	2268	4.00351E-001	7.19153E-002	0.00000E+000	4.01000E-001	-1.07021E-004	11	...........	-327.56
	4580	2290.5	4.45432E-001	6.03196E-002	0.00000E+000	4.46000E-001	-1.08221E-004	11	...........	-327.56
	4625	2313	4.90393E-001	4.94445E-002	0.00000E+000	4.91000E-001	-1.09388E-004	11	...........	-327.56
	4670	2335.5	5.35312E-001	4.35601E-002	0.00000E+000	5.36000E-001	-1.08955E-004	11	...........	-327.56
	4715	2358	5.80253E-001	3.93129E-002	0.00000E+000	5.81000E-001	-1.09088E-004	11	...........	-327.56
	4760	2380.5	6.25289E-001	3.62239E-002	0.00000E+000	6.26000E-001	-1.06655E-004	11	...........	-327.56
	4805	2403	6.70267E-001	3.35723E-002	0.00000E+000	6.71000E-001	-1.09655E-004	11	...........	-327.56
	4850	2425.5	7.15188E-001	3.12494E-002	0.00000E+000	7.16000E-001	-1.10588E-004	11	...........	-327.56
	4895	2448	7.60122E-001	3.00503E-002	0.00000E+000	7.61000E-001	-1.08355E-004	11	...........	-327.56
	4940	2470.5	8.05155E-001	2.84394E-002	0.00000E+000	8.06000E-001	-1.12221E-004	11	...........	-327.56
	4985	2493	8.50086E-001	2.66088E-002	0.00000E+000	8.51000E-001	-1.08088E-004	11	...........	-327.56
	5030	2515.5	8.95009E-001	2.48458E-002	0.00000E+000	8.96000E-001	-1.05788E-004	11	...........	-327.56
	5075	2538	9.39647E-001	2.35246E-002	0.00000E+000	9.41000E-001	-1.01388E-004	10	...........	-327.56
	5120	2560.5	9.84693E-001	2.30364E-002	0.00000E+000	9.86000E-001	-1.03021E-004	10	...........	-327.56
	5165	2583	1.02963E+000	2.50122E-002	0.00000E+000	1.03100E+000	-1.04488E-004	10	...........	-327.56
	5210	2605.5	1.07482E+000	3.20562E-002	0.00000E+000	1.07600E+000	-1.09188E-004	11	...........	-327.56
	5255	2628	1.11981E+000	4.50286E-002	0.00000E+000	1.12100E+000	-1.08888E-004	11	...........	-327.56
	5300	2650.5	1.16473E+000	6.23727E-002	0.00000E+000	1.16600E+000	-1.11321E-004	11	...........	-327.56
	5345	2673	1.20964E+000	8.86873E-002	0.00000E+000	1.21100E+000	-1.08821E-004	11	...........	-327.56
	5390	2695.5	1.25454E+000	1.30563E-001	0.00000E+000	1.25600E+000	-1.09421E-004	11	...........	-327.56
	5435	2718	1.29938E+000	1.97036E-001	0.00000E+000	1.30100E+000	-1.07488E-004	11	...........	-327.56
	5480	2740.5	1.34443E+000	2.82318E-001	0.00000E+000	1.34600E+000	-1.08888E-004	12	...........	-327.56
	5525	2763	1.38941E+000	3.96846E-001	0.00000E+000	1.39100E+000	-1.05921E-004	12	...........	-327.56
	5570	2785.5	1.43423E+000	5.24059E-001	0.00000E+000	1.43600E+000	-1.07321E-004	12	...........	-327.56
[...]
	8311	4156	-2.22830E-001	9.13726E-003	0.00000E+000	-2.23000E-001	-1.11955E-004	10	...........	-327.56
	8334	4167.5	-1.99877E-001	1.10558E-002	0.00000E+000	-2.00000E-001	-1.09555E-004	10	...........	-327.56
	8357	4179	-1.76932E-001	1.32617E-002	0.00000E+000	-1.77000E-001	-1.08488E-004	10	...........	-327.56
	8380	4190.5	-1.54012E-001	1.48094E-002	0.00000E+000	-1.54000E-001	-1.09255E-004	10	...........	-327.56
	8403	4202	-1.31034E-001	1.62036E-002	0.00000E+000	-1.31000E-001	-1.09755E-004	10	...........	-327.56
	8426	4213.5	-1.08090E-001	1.78306E-002	0.00000E+000	-1.08000E-001	-1.04455E-004	10	...........	-327.56
	8449	4225	-8.51659E-002	1.90589E-002	0.00000E+000	-8.50000E-002	-1.07155E-004	10	...........	-327.56
	8472	4236.5	-6.22017E-002	2.02402E-002	0.00000E+000	-6.20000E-002	-1.06788E-004	10	...........	-327.56
	8495	4248	-3.91936E-002	2.29191E-002	0.00000E+000	-3.90000E-002	-1.04555E-004	10	...........	-327.56
	8518	4259.5	-1.62159E-002	2.63285E-002	0.00000E+000	-1.60000E-002	-1.01988E-004	10	...........	-327.56
	8541	4271	6.81232E-003	3.07589E-002	0.00000E+000	7.00003E-003	-1.07688E-004	11	...........	-327.56
	8564	4282.5	2.97953E-002	3.64008E-002	0.00000E+000	3.00000E-002	-1.11288E-004	11	...........	-327.56
	8587	4294	5.27692E-002	4.37374E-002	0.00000E+000	5.30000E-002	-1.11088E-004	11	...........	-327.56
	8610	4305.5	7.57208E-002	5.12755E-002	0.00000E+000	7.60000E-002	-1.05855E-004	11	...........	-327.56
	8633	4317	9.86914E-002	5.58689E-002	0.00000E+000	9.90000E-002	-1.07921E-004	11	...........	-327.56
	8656	4328.5	1.21615E-001	5.48091E-002	0.00000E+000	1.22000E-001	-1.08288E-004	11	...........	-327.56
	8679	4340	1.44622E-001	4.65062E-002	0.00000E+000	1.45000E-001	-1.06088E-004	11	...........	-327.56
	8702	4351.5	1.67582E-001	4.55505E-002	0.00000E+000	1.68000E-001	-1.09621E-004	11	...........	-327.56
	8725	4363	1.90659E-001	4.67362E-002	0.00000E+000	1.91000E-001	-1.10588E-004	11	...........	-327.56
	8748	4374.5	2.13606E-001	4.92370E-002	0.00000E+000	2.14000E-001	-1.10088E-004	11	...........	-327.56
	8771	4386	2.36612E-001	5.22812E-002	0.00000E+000	2.37000E-001	-1.09388E-004	11	...........	-327.56
	8794	4397.5	2.59563E-001	5.54356E-002	0.00000E+000	2.60000E-001	-1.05588E-004	11	...........	-327.56
	8817	4409	2.82533E-001	5.82083E-002	0.00000E+000	2.83000E-001	-1.07188E-004	11	...........	-327.56
	8840	4420.5	3.05528E-001	6.08481E-002	0.00000E+000	3.06000E-001	-1.09221E-004	11	...........	-327.56
	8863	4432	3.28405E-001	6.32232E-002	0.00000E+000	3.29000E-001	-1.08688E-004	11	...........	-327.56
	8886	4443.5	3.51417E-001	6.55719E-002	0.00000E+000	3.52000E-001	-1.13721E-004	11	...........	-327.56
	8909	4455	3.74365E-001	6.46254E-002	0.00000E+000	3.75000E-001	-1.12488E-004	11	...........	-327.56
	8932	4466.5	3.97365E-001	6.36162E-002	0.00000E+000	3.98000E-001	-1.12655E-004	11	...........	-327.56
	8955	4478	4.20430E-001	6.53644E-002	0.00000E+000	4.21000E-001	-1.07555E-004	11	...........	-327.56
	8978	4489.5	4.43426E-001	6.57200E-002	0.00000E+000	4.44000E-001	-1.08555E-004	11	...........	-327.56
	9001	4501	4.66397E-001	6.40709E-002	0.00000E+000	4.67000E-001	-1.09321E-004	11	...........	-327.56
	9024	4512.5	4.89398E-001	6.10534E-002	0.00000E+000	4.90000E-001	-1.10488E-004	11	...........	-327.56
	9047	4524	5.12303E-001	5.73597E-002	0.00000E+000	5.13000E-001	-1.09688E-004	11	...........	-327.56
	9070	4535.5	5.35283E-001	5.35546E-002	0.00000E+000	5.36000E-001	-1.10821E-004	11	...........	-327.56
	9093	4547	5.58319E-001	4.99662E-002	0.00000E+000	5.59000E-001	-1.13188E-004	11	...........	-327.56
	9116	4558.5	5.81242E-001	4.66449E-002	0.00000E+000	5.82000E-001	-1.11088E-004	11	...........	-327.56
	9139	4570	6.04234E-001	4.36323E-002	0.00000E+000	6.05000E-001	-1.10955E-004	11	...........	-327.56
	9162	4581.5	6.27261E-001	4.07449E-002	0.00000E+000	6.28000E-001	-1.07255E-004	11	...........	-327.56
	9185	4593	6.50272E-001	3.81751E-002	0.00000E+000	6.51000E-001	-1.06555E-004	11	...........	-327.56
	9208	4604.5	6.73258E-001	3.59381E-002	0.00000E+000	6.74000E-001	-1.07055E-004	11	...........	-327.56
	9231	4616	6.96250E-001	3.39337E-002	0.00000E+000	6.97000E-001	-1.09388E-004	11	...........	-327.56
	9254	4627.5	7.19166E-001	3.22049E-002	0.00000E+000	7.20000E-001	-1.05988E-004	11	...........	-327.56
	9277	4639	7.42155E-001	3.07186E-002	0.00000E+000	7.43000E-001	-1.06355E-004	11	...........	-327.56
	9300	4650.5	7.65118E-001	2.92594E-002	0.00000E+000	7.66000E-001	-1.11088E-004	11	...........	-327.56
	9323	4662	7.88111E-001	2.80004E-002	0.00000E+000	7.89000E-001	-1.13688E-004	11	...........	-327.56
	9346	4673.5	8.11129E-001	2.68901E-002	0.00000E+000	8.12000E-001	-1.09755E-004	11	...........	-327.56
	9369	4685	8.33993E-001	2.56806E-002	0.00000E+000	8.35000E-001	-1.10121E-004	11	...........	-327.56
	9392	4696.5	8.57064E-001	2.45570E-002	0.00000E+000	8.58000E-001	-1.10155E-004	11	...........	-327.56
	9415	4708	8.79808E-001	2.36124E-002	0.00000E+000	8.81000E-001	-1.03321E-004	10	...........	-327.56
	9438	4719.5	9.02811E-001	2.26150E-002	0.00000E+000	9.04000E-001	-1.05888E-004	10	...........	-327.56
	9461	4731	9.25748E-001	2.17683E-002	0.00000E+000	9.27000E-001	-1.10555E-004	10	...........	-327.56
	9484	4742.5	9.48750E-001	2.11156E-002	0.00000E+000	9.50000E-001	-1.06521E-004	10	...........	-327.56
	9507	4754	9.71693E-001	2.10031E-002	0.00000E+000	9.73000E-001	-1.06555E-004	10	...........	-327.56
	9530	4765.5	9.94656E-001	2.18821E-002	0.00000E+000	9.96000E-001	-1.05221E-004	10	...........	-327.56
	9553	4777	1.01758E+000	2.42762E-002	0.00000E+000	1.01900E+000	-1.05321E-004	10	...........	-327.56
	9576	4788.5	1.04082E+000	2.86837E-002	0.00000E+000	1.04200E+000	-1.08421E-004	11	...........	-327.56
	9599	4800	1.06389E+000	3.52844E-002	0.00000E+000	1.06500E+000	-1.11888E-004	11	...........	-327.56
	9622	4811.5	1.08685E+000	4.39006E-002	0.00000E+000	1.08800E+000	-1.10821E-004	11	...........	-327.56
	9645	4823	1.10982E+000	5.43609E-002	0.00000E+000	1.11100E+000	-1.13288E-004	11	...........	-327.56
	9668	4834.5	1.13273E+000	6.66585E-002	0.00000E+000	1.13400E+000	-1.10355E-004	11	...........	-327.56
	9691	4846	1.15568E+000	8.08375E-002	0.00000E+000	1.15700E+000	-1.08855E-004	11	...........	-327.56
	9714	4857.5	1.17865E+000	9.62647E-002	0.00000E+000	1.18000E+000	-1.13121E-004	11	...........	-327.56
	9737	4869	1.20158E+000	1.14292E-001	0.00000E+000	1.20300E+000	-1.13221E-004	11	...........	-327.56
	9760	4880.5	1.22452E+000	1.36595E-001	0.00000E+000	1.22600E+000	-1.07988E-004	11	...........	-327.56
	9783	4892	1.24745E+000	1.65334E-001	0.00000E+000	1.24900E+000	-1.07855E-004	11	...........	-327.56
	9806	4903.5	1.27036E+000	2.02761E-001	0.00000E+000	1.27200E+000	-1.10821E-004	11	...........	-327.56
	9829	4915	1.29325E+000	2.48243E-001	0.00000E+000	1.29500E+000	-1.08688E-004	11	...........	-327.56
	9852	4926.5	1.31659E+000	3.00598E-001	0.00000E+000	1.31800E+000	-1.10555E-004	12	...........	-327.56
	9875	4938	1.33948E+000	3.56055E-001	0.00000E+000	1.34100E+000	-1.10355E-004	12	...........	-327.56
	9898	4949.5	1.36241E+000	4.15516E-001	0.00000E+000	1.36400E+000	-1.11488E-004	12	...........	-327.56
	9921	4961	1.38536E+000	4.78339E-001	0.00000E+000	1.38700E+000	-1.05521E-004	12	...........	-327.56
	9944	4972.5	1.40828E+000	5.40131E-001	0.00000E+000	1.41000E+000	-1.09755E-004	12	...........	-327.56
	9967	4984	1.43119E+000	6.01374E-001	0.00000E+000	1.43300E+000	-1.08621E-004	12	...........	-327.56
	9990	4995.5	1.45412E+000	6.60470E-001	0.00000E+000	1.45600E+000	-1.13755E-004	12	...........	-327.56
	10013	5007	1.47705E+000	7.24690E-001	0.00000E+000	1.47900E+000	-1.12055E-004	12	...........	-327.56
	10036	5018.5	1.49997E+000	7.85457E-001	0.00000E+000	1.50200E+000	-1.12188E-004	12	...........	-327.56
	10059	5030	1.52301E+000	8.39900E-001	0.00000E+000	1.52500E+000	-1.06421E-004	12	...........	-327.56
	10082	5041.5	1.54593E+000	8.90755E-001	0.00000E+000	1.54800E+000	-1.09055E-004	12	...........	-327.56
	10105	5053	1.56888E+000	9.42467E-001	0.00000E+000	1.57100E+000	-1.14188E-004	12	...........	-327.56
	10128	5064.5	1.59185E+000	9.96708E-001	0.00000E+000	1.59400E+000	-1.10055E-004	12	...........	-327.56
	10151	5076	1.61479E+000	1.04520E+000	0.00000E+000	1.61700E+000	-1.11588E-004	12	...........	-327.56
	10174	5087.5	1.63772E+000	1.08876E+000	0.00000E+000	1.64000E+000	-1.13421E-004	12	...........	-327.56
	10197	5099	1.66069E+000	1.13943E+000	0.00000E+000	1.66300E+000	-1.08355E-004	12	...........	-327.56
	10220	5110.5	1.68361E+000	1.17806E+000	0.00000E+000	1.68600E+000	-1.06555E-004	12	...........	-327.56
	10234	5117.5	1.69763E+000	1.20990E+000	0.00000E+000	1.70000E+000	-1.09255E-004	12	...........	-327.56