File: testing/data/240902_23_MCL13_cspWE_CV1_750C_CO2.DTA
EXPLAIN
TAG	CV
TITLE	LABEL	Cyclic Voltammetry	Test Identifier
DATE	LABEL	9/4/2024	Date
TIME	LABEL	1:42:02	Time
NOTES	NOTES	5	Notes...
	cswWE - carbon steel wire
cspWE - carbon steel plate 2x2 tapered

Carbon steel plate counter electrode
Carbon steel wire reference electrode
PSTAT	PSTAT	REF3000-48128	Potentiostat
VINIT	POTEN	0.00000E+000	T	Initial E (V)
VLIMIT1	POTEN	1.70000E+000	F	Scan Limit 1 (V)
VLIMIT2	POTEN	-8.00000E-001	F	Scan Limit 2 (V)
VFINAL	POTEN	1.70000E+000	F	Final E (V)
SCANRATE	QUANT	9.99998E-001	Scan Rate (mV/s)
STEPSIZE	QUANT	1.00000E+000	Step Size (mV)
CYCLES	IQUANT	2	Cycles (#)
IMODE	SELECTOR	0	I/E Range Mode
IRANGE	QUANT	3.00000E-001	Max Current (mA)
AREA	QUANT	1.00000E+000	Sample Area (cm^2)
EQDELAY	QUANT	0.00000E+000	Equil. Time (s)
IRCOMP	SELECTOR	0	IRComp
PFCOR	QUANT	5.00000E+001	PF Corr. (ohm)
SAMPLINGMODE	SELECTOR	1	Sampling Mode
EOC	QUANT	0.5299046	Open Circuit (V)
ELECTRODETYPE	SELECTOR	0	Electrode Type
STRIPPING	TOGGLE	F	Used for Stripping
SEQUENCER	TOGGLE	TRUE	Run as Sequence
PSTATMODEL	IQUANT	5	Pstat Model
PSTATSECTION	LABEL	REF3000-48128	Pstat Section
PSTATSERIALNO	LABEL	48128	Pstat Serial Number
CTRLMODE	IQUANT	1	Control Mode
ELECTROMETER	IQUANT	0	RE=0 or CS=1
IESTAB	IQUANT	2	I/E Stability
CASPEED	IQUANT	4	Control Amp Speed
CONVENTION	IQUANT	1	Current Convention
ICHRANGE	IQUANT	2	Ich Range
ICHRANGEMODE	TOGGLE	F	Ich Auto Range
ICHOFFSETENABLE	TOGGLE	F	Ich Offset Enable
ICHOFFSET	QUANT	0	Ich Offset (V)
ICHFILTER	IQUANT	3	Ich Filter
VCHRANGE	IQUANT	2	Vch Range
VCHRANGEMODE	TOGGLE	F	Vch Auto Range
VCHOFFSETENABLE	TOGGLE	F	Vch Offset Enable
VCHOFFSET	QUANT	0	Vch Offset (V)
VCHFILTER	IQUANT	3	Vch Filter
ACHRANGE	IQUANT	2	Ach Range
ACHOFFSETENABLE	TOGGLE	F	Ach Offset Enable
ACHOFFSET	QUANT	0	Ach Offset (V)
ACHFILTER	IQUANT	1	Ach Filter
IERANGELOWERLIMIT	IQUANT	2	I/E Range Lower Limit
IERANGEMODE	TOGGLE	T	I/E AutoRange
IERANGE	IQUANT	9	I/E Range
POSFEEDENABLE	TOGGLE	F	Positive Feedback IR Comp
POSFEEDRESISTANCE	QUANT	0	Positive Feedback Resistance (ohm)
ACHSELECT	IQUANT	4	Ach Select
SENSECABLEID	IQUANT	14	Sense Cable ID
PWRCABLEID	IQUANT	7	Power Cable ID
DCCALDATE	LABEL	8/16/2024	DC Calibration Date
ACCALDATE	LABEL	8/16/2024	AC Calibration Date
THERMOSELECT	IQUANT	1	Thermo Select
FRAMEWORKVERSION	LABEL	7.10.3	Framework Version
INSTRUMENTVERSION	LABEL	4.91	Instrument Version
COMMVERSION	LABEL	5.10	Communications Version
CPUPLDVERSION	LABEL	6.00	CPU PLD Version
CTRLPLDVERSION	LABEL	3.21	CTRL PLD Version
PSTATPLDVERSION	LABEL	0.00	PSTAT PLD Version
COMPLIANCEVOLTAGE	IQUANT	0	Compliance Voltage
CURVE1	TABLE
	Pt	T	Vf	Im	Vu	Sig	Ach	IERange	Over	Temp
	#	s	V vs. Ref.	A	V	V	V	#	bits	deg C
	0	1	5.29001E-001	2.47289E-003	0.00000E+000	5.29900E-001	-1.07671E-004	9	...........	-327.56
	37	38	5.66229E-001	7.77095E-002	0.00000E+000	5.66900E-001	-1.18121E-004	11	...........	-327.56
	74	75	6.03115E-001	1.18285E-001	0.00000E+000	6.03900E-001	-1.18671E-004	11	...........	-327.56
	111	112	6.40015E-001	1.33036E-001	0.00000E+000	6.40900E-001	-1.18955E-004	11	...........	-327.56
	148	149	6.77041E-001	1.39134E-001	0.00000E+000	6.77900E-001	-1.19371E-004	11	...........	-327.56
	185	186	7.13969E-001	1.33101E-001	0.00000E+000	7.14900E-001	-1.15121E-004	11	...........	-327.56
	222	223	7.50970E-001	1.32464E-001	0.00000E+000	7.51900E-001	-1.15721E-004	11	...........	-327.56
	259	260	7.87869E-001	1.31115E-001	0.00000E+000	7.88900E-001	-1.14138E-004	11	...........	-327.56
	296	297	8.24837E-001	1.32795E-001	0.00000E+000	8.25900E-001	-1.19071E-004	11	...........	-327.56
	333	334	8.61783E-001	1.30901E-001	0.00000E+000	8.62900E-001	-1.17488E-004	11	...........	-327.56
	370	371	8.98808E-001	1.25840E-001	0.00000E+000	8.99900E-001	-1.16455E-004	11	...........	-327.56
	407	408	9.35711E-001	1.23851E-001	0.00000E+000	9.36900E-001	-1.18171E-004	11	...........	-327.56
	444	445	9.72723E-001	1.24627E-001	0.00000E+000	9.73900E-001	-1.18921E-004	11	...........	-327.56
	481	482	1.00972E+000	1.27375E-001	0.00000E+000	1.01090E+000	-1.18321E-004	11	...........	-327.56
	518	519	1.04661E+000	1.42554E-001	0.00000E+000	1.04790E+000	-1.18338E-004	11	...........	-327.56
	555	556	1.08355E+000	1.79773E-001	0.00000E+000	1.08490E+000	-1.18138E-004	11	...........	-327.56
	592	593	1.12037E+000	2.43237E-001	0.00000E+000	1.12190E+000	-1.15055E-004	11	...........	-327.56
	629	630	1.15758E+000	3.17883E-001	0.00000E+000	1.15890E+000	-1.18221E-004	12	...........	-327.56
	666	667	1.19445E+000	4.06621E-001	0.00000E+000	1.19590E+000	-1.20221E-004	12	...........	-327.56
	703	704	1.23142E+000	5.00109E-001	0.00000E+000	1.23290E+000	-1.17538E-004	12	...........	-327.56
	740	741	1.26823E+000	6.24040E-001	0.00000E+000	1.26990E+000	-1.21855E-004	12	...........	-327.56
	777	778	1.30516E+000	7.57409E-001	0.00000E+000	1.30690E+000	-1.17655E-004	12	...........	-327.56
	814	815	1.34205E+000	9.00600E-001	0.00000E+000	1.34390E+000	-1.20838E-004	12	...........	-327.56
	851	852	1.37891E+000	1.04268E+000	0.00000E+000	1.38090E+000	-1.21705E-004	12	...........	-327.56
	888	889	1.41589E+000	1.16277E+000	0.00000E+000	1.41790E+000	-1.20921E-004	12	...........	-327.56
	925	926	1.45274E+000	1.27513E+000	0.00000E+000	1.45490E+000	-1.17355E-004	12	...........	-327.56
	962	963	1.48969E+000	1.39483E+000	0.00000E+000	1.49190E+000	-1.22721E-004	12	...........	-327.56
	999	1000	1.52657E+000	1.50205E+000	0.00000E+000	1.52890E+000	-1.19905E-004	12	...........	-327.56
	1036	1037	1.56353E+000	1.59754E+000	0.00000E+000	1.56590E+000	-1.21305E-004	12	...........	-327.56
	1073	1074	1.60038E+000	1.71678E+000	0.00000E+000	1.60290E+000	-1.16755E-004	12	...........	-327.56
	1110	1111	1.63738E+000	1.86054E+000	0.00000E+000	1.63990E+000	-1.21455E-004	12	...........	-327.56
	1147	1148	1.67435E+000	1.97873E+000	0.00000E+000	1.67690E+000	-1.13555E-004	12	...........	-327.56
	1184	1185	1.68331E+000	2.00217E+000	0.00000E+000	1.68590E+000	-1.19105E-004	12	...........	-327.56
	1221	1222	1.64639E+000	1.88708E+000	0.00000E+000	1.64890E+000	-1.19788E-004	12	...........	-327.56
	1258	1259	1.60944E+000	1.81696E+000	0.00000E+000	1.61190E+000	-1.16821E-004	12	...........	-327.56
	1295	1296	1.57249E+000	1.70540E+000	0.00000E+000	1.57490E+000	-1.17238E-004	12	...........	-327.56
	1332	1333	1.53553E+000	1.62219E+000	0.00000E+000	1.53790E+000	-1.16921E-004	12	...........	-327.56
	1369	1370	1.49854E+000	1.51434E+000	0.00000E+000	1.50090E+000	-1.21471E-004	12	...........	-327.56
	1406	1407	1.46169E+000	1.42245E+000	0.00000E+000	1.46390E+000	-1.19821E-004	12	...........	-327.56
	1443	1444	1.42470E+000	1.32406E+000	0.00000E+000	1.42690E+000	-1.13105E-004	12	...........	-327.56
	1480	1481	1.38783E+000	1.21428E+000	0.00000E+000	1.38990E+000	-1.13405E-004	12	...........	-327.56
	1517	1518	1.35088E+000	1.07578E+000	0.00000E+000	1.35290E+000	-1.16955E-004	12	...........	-327.56
	1554	1555	1.31404E+000	9.86656E-001	0.00000E+000	1.31590E+000	-1.12721E-004	12	...........	-327.56
	1591	1592	1.27710E+000	8.82276E-001	0.00000E+000	1.27890E+000	-1.13071E-004	12	...........	-327.56
	1628	1629	1.24023E+000	7.91643E-001	0.00000E+000	1.24190E+000	-1.10938E-004	12	...........	-327.56
	1665	1666	1.20324E+000	6.86390E-001	0.00000E+000	1.20490E+000	-1.13705E-004	12	...........	-327.56
	1702	1703	1.16634E+000	5.86310E-001	0.00000E+000	1.16790E+000	-1.14688E-004	12	...........	-327.56
	1739	1740	1.12950E+000	4.71290E-001	0.00000E+000	1.13090E+000	-1.15088E-004	12	...........	-327.56
	1776	1777	1.09262E+000	3.60542E-001	0.00000E+000	1.09390E+000	-1.12921E-004	12	...........	-327.56
	1813	1814	1.05572E+000	2.57590E-001	0.00000E+000	1.05690E+000	-1.12788E-004	12	...........	-327.56
	1850	1851	1.01859E+000	1.71132E-001	0.00000E+000	1.01990E+000	-1.18421E-004	11	...........	-327.56
	1887	1888	9.81753E-001	1.10063E-001	0.00000E+000	9.82900E-001	-1.15971E-004	11	...........	-327.56
	1924	1925	9.44782E-001	8.02676E-002	0.00000E+000	9.45900E-001	-1.11905E-004	11	...........	-327.56
	1961	1962	9.07915E-001	7.02202E-002	0.00000E+000	9.08900E-001	-1.10305E-004	11	...........	-327.56
	1998	1999	8.70891E-001	6.62823E-002	0.00000E+000	8.71900E-001	-1.11521E-004	11	...........	-327.56
	2035	2036	8.33892E-001	6.53588E-002	0.00000E+000	8.34900E-001	-1.14271E-004	11	...........	-327.56
	2072	2073	7.97025E-001	6.27552E-002	0.00000E+000	7.97900E-001	-1.15605E-004	11	...........	-327.56
	2109	2110	7.59975E-001	6.27267E-002	0.00000E+000	7.60900E-001	-1.15571E-004	11	...........	-327.56
	2146	2147	7.23099E-001	5.79607E-002	0.00000E+000	7.23900E-001	-1.14705E-004	11	...........	-327.56
	2183	2184	6.86126E-001	4.86164E-002	0.00000E+000	6.86900E-001	-1.16338E-004	11	...........	-327.56
	2220	2221	6.49193E-001	4.30449E-002	0.00000E+000	6.49900E-001	-1.15438E-004	11	...........	-327.56
	2257	2258	6.12220E-001	3.44684E-002	0.00000E+000	6.12900E-001	-1.19321E-004	11	...........	-327.56
	2294	2295	5.75042E-001	2.33233E-002	0.00000E+000	5.75900E-001	-1.13121E-004	10	...........	-327.56
	2331	2332	5.38176E-001	1.17785E-002	0.00000E+000	5.38900E-001	-1.14055E-004	10	...........	-327.56
	2368	2369	5.01342E-001	3.17435E-005	0.00000E+000	5.01900E-001	-1.20721E-004	9	...........	-327.56
	2405	2406	4.64627E-001	-1.47150E-002	0.00000E+000	4.64900E-001	-1.14738E-004	10	...........	-327.56
	2442	2443	4.27454E-001	-3.14597E-002	0.00000E+000	4.27900E-001	-1.16271E-004	11	...........	-327.56
	2479	2480	3.90570E-001	-4.75763E-002	0.00000E+000	3.90900E-001	-1.17821E-004	11	...........	-327.56
	2516	2517	3.53563E-001	-6.26912E-002	0.00000E+000	3.53900E-001	-1.20921E-004	11	...........	-327.56
	2553	2554	3.16659E-001	-7.56715E-002	0.00000E+000	3.16900E-001	-1.15605E-004	11	...........	-327.56
	2590	2591	2.79707E-001	-9.51702E-002	0.00000E+000	2.79900E-001	-1.18438E-004	11	...........	-327.56
	2627	2628	2.42782E-001	-1.12566E-001	0.00000E+000	2.42900E-001	-1.19571E-004	11	...........	-327.56
	2664	2665	2.05830E-001	-1.25089E-001	0.00000E+000	2.05900E-001	-1.19171E-004	11	...........	-327.56
	2701	2702	1.68824E-001	-1.38413E-001	0.00000E+000	1.68900E-001	-1.21038E-004	11	...........	-327.56
	2738	2739	1.31972E-001	-1.61589E-001	0.00000E+000	1.31900E-001	-1.17288E-004	11	...........	-327.56
	2775	2776	9.50241E-002	-1.89571E-001	0.00000E+000	9.49000E-002	-1.14405E-004	11	...........	-327.56
	2812	2813	5.81667E-002	-2.28698E-001	0.00000E+000	5.79000E-002	-1.05855E-004	11	...........	-327.56
	2849	2850	2.11992E-002	-2.49410E-001	0.00000E+000	2.09000E-002	-1.07505E-004	11	...........	-327.56
	2886	2887	-1.55070E-002	-2.62862E-001	0.00000E+000	-1.61000E-002	-1.03055E-004	11	...........	-327.56
	2923	2924	-5.26076E-002	-2.06799E-001	0.00000E+000	-5.31000E-002	-1.16421E-004	11	...........	-327.56
	2960	2961	-8.96736E-002	-1.45973E-001	0.00000E+000	-9.01000E-002	-1.19805E-004	11	...........	-327.56
	2997	2998	-1.26634E-001	-1.28619E-001	0.00000E+000	-1.27100E-001	-1.21821E-004	11	...........	-327.56
	3034	3035	-1.63721E-001	-1.09997E-001	0.00000E+000	-1.64100E-001	-1.22938E-004	11	...........	-327.56
	3071	3072	-2.00649E-001	-9.35355E-002	0.00000E+000	-2.01100E-001	-1.23955E-004	11	...........	-327.56
	3108	3109	-2.37668E-001	-9.89331E-002	0.00000E+000	-2.38100E-001	-1.20338E-004	11	...........	-327.56
	3145	3146	-2.74558E-001	-1.07092E-001	0.00000E+000	-2.75100E-001	-1.17255E-004	11	...........	-327.56
	3182	3183	-3.11539E-001	-1.19342E-001	0.00000E+000	-3.12100E-001	-1.22438E-004	11	...........	-327.56
	3219	3220	-3.48439E-001	-1.37053E-001	0.00000E+000	-3.49100E-001	-1.17871E-004	11	...........	-327.56
	3256	3257	-3.85398E-001	-1.64614E-001	0.00000E+000	-3.86100E-001	-1.19288E-004	11	...........	-327.56
	3293	3294	-4.22301E-001	-2.15436E-001	0.00000E+000	-4.23100E-001	-1.12788E-004	11	...........	-327.56
	3330	3331	-4.59443E-001	-2.87519E-001	0.00000E+000	-4.60100E-001	-1.23188E-004	12	...........	-327.56
	3367	3368	-4.96424E-001	-3.77070E-001	0.00000E+000	-4.97100E-001	-1.21205E-004	12	...........	-327.56
	3404	3405	-5.33243E-001	-4.58093E-001	0.00000E+000	-5.34100E-001	-1.22505E-004	12	...........	-327.56
	3441	3442	-5.70194E-001	-5.41034E-001	0.00000E+000	-5.71100E-001	-1.22821E-004	12	...........	-327.56
	3478	3479	-6.07105E-001	-6.16297E-001	0.00000E+000	-6.08100E-001	-1.26338E-004	12	...........	-327.56
	3515	3516	-6.44058E-001	-6.92680E-001	0.00000E+000	-6.45100E-001	-1.18571E-004	12	...........	-327.56
	3552	3553	-6.80923E-001	-7.67734E-001	0.00000E+000	-6.82100E-001	-1.19321E-004	12	...........	-327.56
	3589	3590	-7.17842E-001	-8.47850E-001	0.00000E+000	-7.19100E-001	-1.23805E-004	12	...........	-327.56
	3626	3627	-7.54835E-001	-9.35339E-001	0.00000E+000	-7.56100E-001	-1.18021E-004	12	...........	-327.56
	3663	3664	-7.91680E-001	-1.02460E+000	0.00000E+000	-7.93100E-001	-1.19388E-004	12	...........	-327.56
	3670	3671	-7.98705E-001	-1.04067E+000	0.00000E+000	-8.00100E-001	-1.23205E-004	12	...........	-327.56
CURVE2	TABLE
	Pt	T	Vf	Im	Vu	Sig	Ach	IERange	Over	Temp
	#	s	V vs. Ref.	A	V	V	V	#	bits	deg C
	3671	3672	-7.97623E-001	-1.03674E+000	0.00000E+000	-7.99000E-001	-1.20955E-004	12	...........	-327.56
	3722	3723	-7.46739E-001	-8.70853E-001	0.00000E+000	-7.48000E-001	-1.22271E-004	12	...........	-327.56
	3773	3774	-6.95902E-001	-7.12122E-001	0.00000E+000	-6.97000E-001	-1.26171E-004	12	...........	-327.56
	3824	3825	-6.45005E-001	-5.67946E-001	0.00000E+000	-6.46000E-001	-1.24721E-004	12	...........	-327.56
	3875	3876	-5.94163E-001	-4.28754E-001	0.00000E+000	-5.95000E-001	-1.23171E-004	12	...........	-327.56
	3926	3927	-5.43280E-001	-2.99422E-001	0.00000E+000	-5.44000E-001	-1.20021E-004	12	...........	-327.56
	3977	3978	-4.92225E-001	-1.76072E-001	0.00000E+000	-4.93000E-001	-1.16921E-004	11	...........	-327.56
	4028	4029	-4.41457E-001	-6.08176E-002	0.00000E+000	-4.42000E-001	-1.19371E-004	11	...........	-327.56
	4079	4080	-3.90647E-001	4.66866E-002	0.00000E+000	-3.91000E-001	-1.21488E-004	11	...........	-327.56
	4130	4131	-3.39831E-001	1.29937E-001	0.00000E+000	-3.40000E-001	-1.21621E-004	11	...........	-327.56
	4181	4182	-2.89009E-001	1.80569E-001	0.00000E+000	-2.89000E-001	-1.18205E-004	11	...........	-327.56
	4232	4233	-2.38114E-001	2.25736E-001	0.00000E+000	-2.38000E-001	-1.22255E-004	11	...........	-327.56
	4283	4284	-1.87198E-001	2.45869E-001	0.00000E+000	-1.87000E-001	-1.23871E-004	11	...........	-327.56
	4334	4335	-1.36184E-001	2.56785E-001	0.00000E+000	-1.36000E-001	-1.22355E-004	11	...........	-327.56
	4385	4386	-8.50085E-002	2.79896E-001	0.00000E+000	-8.49999E-002	-1.28338E-004	12	...........	-327.56
	4436	4437	-3.41007E-002	3.04960E-001	0.00000E+000	-3.40000E-002	-1.26805E-004	12	...........	-327.56
	4487	4488	1.66408E-002	3.26452E-001	0.00000E+000	1.70000E-002	-1.24605E-004	12	...........	-327.56
	4538	4539	6.75793E-002	3.61453E-001	0.00000E+000	6.80000E-002	-1.25371E-004	12	...........	-327.56
	4589	4590	1.18507E-001	4.15548E-001	0.00000E+000	1.19000E-001	-1.29721E-004	12	...........	-327.56
	4640	4641	1.69451E-001	4.97214E-001	0.00000E+000	1.70000E-001	-1.26238E-004	12	...........	-327.56
	4691	4692	2.20275E-001	5.90268E-001	0.00000E+000	2.21000E-001	-1.27588E-004	12	...........	-327.56
	4742	4743	2.71173E-001	6.86344E-001	0.00000E+000	2.72000E-001	-1.28021E-004	12	...........	-327.56
	4793	4794	3.22056E-001	7.71703E-001	0.00000E+000	3.23000E-001	-1.24455E-004	12	...........	-327.56
	4844	4845	3.73016E-001	7.97172E-001	0.00000E+000	3.74000E-001	-1.26321E-004	12	...........	-327.56
	4895	4896	4.23997E-001	8.07379E-001	0.00000E+000	4.25000E-001	-1.25655E-004	12	...........	-327.56
	4946	4947	4.74974E-001	8.50731E-001	0.00000E+000	4.76000E-001	-1.26071E-004	12	...........	-327.56
	4997	4998	5.25803E-001	9.13414E-001	0.00000E+000	5.27000E-001	-1.26088E-004	12	...........	-327.56
	5048	5049	5.76719E-001	9.89617E-001	0.00000E+000	5.78000E-001	-1.24855E-004	12	...........	-327.56
	5099	5100	6.27619E-001	1.07495E+000	0.00000E+000	6.29000E-001	-1.22955E-004	12	...........	-327.56
	5150	5151	6.78577E-001	1.16793E+000	0.00000E+000	6.80000E-001	-1.25255E-004	12	...........	-327.56
	5201	5202	7.29520E-001	1.25492E+000	0.00000E+000	7.31000E-001	-1.25605E-004	12	...........	-327.56
	5252	5253	7.80498E-001	1.25162E+000	0.00000E+000	7.82000E-001	-1.22338E-004	12	...........	-327.56
	5303	5304	8.31420E-001	1.20552E+000	0.00000E+000	8.33000E-001	-1.24571E-004	12	...........	-327.56
	5354	5355	8.82431E-001	1.15006E+000	0.00000E+000	8.84000E-001	-1.28088E-004	12	...........	-327.56
	5405	5406	9.33440E-001	1.01545E+000	0.00000E+000	9.35000E-001	-1.20155E-004	12	...........	-327.56
	5456	5457	9.84536E-001	8.11295E-001	0.00000E+000	9.86000E-001	-1.18188E-004	12	...........	-327.56
	5507	5508	1.03563E+000	6.09877E-001	0.00000E+000	1.03700E+000	-1.20738E-004	12	...........	-327.56
	5558	5559	1.08668E+000	4.77731E-001	0.00000E+000	1.08800E+000	-1.20838E-004	12	...........	-327.56
	5609	5610	1.13761E+000	4.41742E-001	0.00000E+000	1.13900E+000	-1.21438E-004	12	...........	-327.56
	5660	5661	1.18852E+000	5.33288E-001	0.00000E+000	1.19000E+000	-1.19771E-004	12	...........	-327.56
	5711	5712	1.23943E+000	6.33795E-001	0.00000E+000	1.24100E+000	-1.21005E-004	12	...........	-327.56
	5762	5763	1.29034E+000	7.42402E-001	0.00000E+000	1.29200E+000	-1.17638E-004	12	...........	-327.56
	5813	5814	1.34115E+000	9.36995E-001	0.00000E+000	1.34300E+000	-1.20221E-004	12	...........	-327.56
	5864	5865	1.39200E+000	1.11226E+000	0.00000E+000	1.39400E+000	-1.23071E-004	12	...........	-327.56
[...]
	9009	9010	-4.60409E-001	-7.93356E-002	0.00000E+000	-4.61000E-001	-1.23738E-004	11	...........	-327.56
	9035	9036	-4.34501E-001	-2.26365E-002	0.00000E+000	-4.35000E-001	-1.20355E-004	11	...........	-327.56
	9061	9062	-4.08601E-001	3.04537E-002	0.00000E+000	-4.09000E-001	-1.28071E-004	11	...........	-327.56
	9087	9088	-3.82686E-001	8.00314E-002	0.00000E+000	-3.83000E-001	-1.22805E-004	11	...........	-327.56
	9113	9114	-3.56781E-001	1.25350E-001	0.00000E+000	-3.57000E-001	-1.25688E-004	11	...........	-327.56
	9139	9140	-3.30869E-001	1.65864E-001	0.00000E+000	-3.31000E-001	-1.23805E-004	11	...........	-327.56
	9165	9166	-3.04977E-001	2.00335E-001	0.00000E+000	-3.05000E-001	-1.19788E-004	11	...........	-327.56
	9191	9192	-2.79029E-001	2.29063E-001	0.00000E+000	-2.79000E-001	-1.22955E-004	11	...........	-327.56
	9217	9218	-2.53092E-001	2.51180E-001	0.00000E+000	-2.53000E-001	-1.21321E-004	11	...........	-327.56
	9243	9244	-2.26848E-001	2.69904E-001	0.00000E+000	-2.27000E-001	-1.26255E-004	12	...........	-327.56
	9269	9270	-2.00887E-001	2.81804E-001	0.00000E+000	-2.01000E-001	-1.24255E-004	12	...........	-327.56
	9295	9296	-1.74902E-001	2.93466E-001	0.00000E+000	-1.75000E-001	-1.29871E-004	12	...........	-327.56
	9321	9322	-1.48917E-001	3.01805E-001	0.00000E+000	-1.49000E-001	-1.24171E-004	12	...........	-327.56
	9347	9348	-1.22933E-001	3.09444E-001	0.00000E+000	-1.23000E-001	-1.26105E-004	12	...........	-327.56
	9373	9374	-9.70006E-002	3.17699E-001	0.00000E+000	-9.70000E-002	-1.23221E-004	12	...........	-327.56
	9399	9400	-7.10125E-002	3.30286E-001	0.00000E+000	-7.10000E-002	-1.28955E-004	12	...........	-327.56
	9425	9426	-4.50432E-002	3.41868E-001	0.00000E+000	-4.50000E-002	-1.24771E-004	12	...........	-327.56
	9451	9452	-1.90653E-002	3.51961E-001	0.00000E+000	-1.90000E-002	-1.26988E-004	12	...........	-327.56
	9477	9478	6.69016E-003	3.63548E-001	0.00000E+000	7.00003E-003	-1.24121E-004	12	...........	-327.56
	9503	9504	3.26641E-002	3.76355E-001	0.00000E+000	3.30000E-002	-1.18038E-004	12	...........	-327.56
	9529	9530	5.86462E-002	3.93280E-001	0.00000E+000	5.90000E-002	-1.27688E-004	12	...........	-327.56
	9555	9556	8.46229E-002	4.14712E-001	0.00000E+000	8.50000E-002	-1.24605E-004	12	...........	-327.56
	9581	9582	1.10539E-001	4.36273E-001	0.00000E+000	1.11000E-001	-1.28688E-004	12	...........	-327.56
	9607	9608	1.36512E-001	4.68426E-001	0.00000E+000	1.37000E-001	-1.22338E-004	12	...........	-327.56
	9633	9634	1.62463E-001	5.05687E-001	0.00000E+000	1.63000E-001	-1.24605E-004	12	...........	-327.56
	9659	9660	1.88425E-001	5.47220E-001	0.00000E+000	1.89000E-001	-1.24471E-004	12	...........	-327.56
	9685	9686	2.14358E-001	5.90495E-001	0.00000E+000	2.15000E-001	-1.28321E-004	12	...........	-327.56
	9711	9712	2.40332E-001	6.35043E-001	0.00000E+000	2.41000E-001	-1.23555E-004	12	...........	-327.56
	9737	9738	2.66285E-001	6.77665E-001	0.00000E+000	2.67000E-001	-1.20171E-004	12	...........	-327.56
	9763	9764	2.92233E-001	7.18132E-001	0.00000E+000	2.93000E-001	-1.27555E-004	12	...........	-327.56
	9789	9790	3.18167E-001	7.54283E-001	0.00000E+000	3.19000E-001	-1.24738E-004	12	...........	-327.56
	9815	9816	3.44130E-001	7.81786E-001	0.00000E+000	3.45000E-001	-1.29155E-004	12	...........	-327.56
	9841	9842	3.70100E-001	7.94981E-001	0.00000E+000	3.71000E-001	-1.24405E-004	12	...........	-327.56
	9867	9868	3.96080E-001	8.07331E-001	0.00000E+000	3.97000E-001	-1.24788E-004	12	...........	-327.56
	9893	9894	4.22039E-001	8.26000E-001	0.00000E+000	4.23000E-001	-1.24005E-004	12	...........	-327.56
	9919	9920	4.48002E-001	8.54498E-001	0.00000E+000	4.49000E-001	-1.27905E-004	12	...........	-327.56
	9945	9946	4.73865E-001	8.88036E-001	0.00000E+000	4.75000E-001	-1.27021E-004	12	...........	-327.56
	9971	9972	4.99850E-001	9.23263E-001	0.00000E+000	5.01000E-001	-1.22538E-004	12	...........	-327.56
	9997	9998	5.25785E-001	9.62619E-001	0.00000E+000	5.27000E-001	-1.24388E-004	12	...........	-327.56
	10023	10024	5.51814E-001	1.00137E+000	0.00000E+000	5.53000E-001	-1.25055E-004	12	...........	-327.56
	10049	10050	5.77715E-001	1.04200E+000	0.00000E+000	5.79000E-001	-1.26671E-004	12	...........	-327.56
	10075	10076	6.03663E-001	1.08811E+000	0.00000E+000	6.05000E-001	-1.24971E-004	12	...........	-327.56
	10101	10102	6.29611E-001	1.13255E+000	0.00000E+000	6.31000E-001	-1.23805E-004	12	...........	-327.56
	10127	10128	6.55567E-001	1.18567E+000	0.00000E+000	6.57000E-001	-1.24305E-004	12	...........	-327.56
	10153	10154	6.81547E-001	1.23671E+000	0.00000E+000	6.83000E-001	-1.22755E-004	12	...........	-327.56
	10179	10180	7.07495E-001	1.28689E+000	0.00000E+000	7.09000E-001	-1.22855E-004	12	...........	-327.56
	10205	10206	7.33422E-001	1.33320E+000	0.00000E+000	7.35000E-001	-1.22771E-004	12	...........	-327.56
	10231	10232	7.59412E-001	1.37160E+000	0.00000E+000	7.61000E-001	-1.25288E-004	12	...........	-327.56
	10257	10258	7.85421E-001	1.41203E+000	0.00000E+000	7.87000E-001	-1.25405E-004	12	...........	-327.56
	10283	10284	8.11361E-001	1.42525E+000	0.00000E+000	8.13000E-001	-1.23555E-004	12	...........	-327.56
	10309	10310	8.37303E-001	1.39866E+000	0.00000E+000	8.39000E-001	-1.21055E-004	12	...........	-327.56
	10335	10336	8.63299E-001	1.36872E+000	0.00000E+000	8.65000E-001	-1.22955E-004	12	...........	-327.56
	10361	10362	8.89297E-001	1.34552E+000	0.00000E+000	8.91000E-001	-1.24088E-004	12	...........	-327.56
	10387	10388	9.15301E-001	1.32263E+000	0.00000E+000	9.17000E-001	-1.24971E-004	12	...........	-327.56
	10413	10414	9.41233E-001	1.28820E+000	0.00000E+000	9.43000E-001	-1.22705E-004	12	...........	-327.56
	10439	10440	9.67263E-001	1.23977E+000	0.00000E+000	9.69000E-001	-1.25138E-004	12	...........	-327.56
	10465	10466	9.93268E-001	1.17640E+000	0.00000E+000	9.95000E-001	-1.25138E-004	12	...........	-327.56
	10491	10492	1.01931E+000	1.08737E+000	0.00000E+000	1.02100E+000	-1.22355E-004	12	...........	-327.56
	10517	10518	1.04534E+000	9.70758E-001	0.00000E+000	1.04700E+000	-1.20238E-004	12	...........	-327.56
	10543	10544	1.07139E+000	8.59368E-001	0.00000E+000	1.07300E+000	-1.21455E-004	12	...........	-327.56
	10569	10570	1.09749E+000	7.49171E-001	0.00000E+000	1.09900E+000	-1.22071E-004	12	...........	-327.56
	10595	10596	1.12348E+000	6.81094E-001	0.00000E+000	1.12500E+000	-1.17821E-004	12	...........	-327.56
	10621	10622	1.14944E+000	6.39741E-001	0.00000E+000	1.15100E+000	-1.18138E-004	12	...........	-327.56
	10647	10648	1.17545E+000	6.13148E-001	0.00000E+000	1.17700E+000	-1.20155E-004	12	...........	-327.56
	10673	10674	1.20146E+000	6.15186E-001	0.00000E+000	1.20300E+000	-1.21755E-004	12	...........	-327.56
	10699	10700	1.22741E+000	6.45887E-001	0.00000E+000	1.22900E+000	-1.20038E-004	12	...........	-327.56
	10725	10726	1.25332E+000	7.51498E-001	0.00000E+000	1.25500E+000	-1.19588E-004	12	...........	-327.56
	10751	10752	1.27928E+000	7.52194E-001	0.00000E+000	1.28100E+000	-1.21821E-004	12	...........	-327.56
	10777	10778	1.30525E+000	7.78947E-001	0.00000E+000	1.30700E+000	-1.18855E-004	12	...........	-327.56
	10803	10804	1.33119E+000	8.27228E-001	0.00000E+000	1.33300E+000	-1.21021E-004	12	...........	-327.56
	10829	10830	1.35713E+000	9.02683E-001	0.00000E+000	1.35900E+000	-1.18171E-004	12	...........	-327.56
	10855	10856	1.38307E+000	9.49385E-001	0.00000E+000	1.38500E+000	-1.18921E-004	12	...........	-327.56
	10881	10882	1.40903E+000	1.01125E+000	0.00000E+000	1.41100E+000	-1.18488E-004	12	...........	-327.56
	10907	10908	1.43497E+000	1.09252E+000	0.00000E+000	1.43700E+000	-1.21688E-004	12	...........	-327.56
	10933	10934	1.46093E+000	1.14414E+000	0.00000E+000	1.46300E+000	-1.21488E-004	12	...........	-327.56
	10959	10960	1.48687E+000	1.19654E+000	0.00000E+000	1.48900E+000	-1.21438E-004	12	...........	-327.56
	10985	10986	1.51282E+000	1.27194E+000	0.00000E+000	1.51500E+000	-1.21088E-004	12	...........	-327.56
	11011	11012	1.53873E+000	1.36341E+000	0.00000E+000	1.54100E+000	-1.19221E-004	12	...........	-327.56
	11037	11038	1.56471E+000	1.44658E+000	0.00000E+000	1.56700E+000	-1.20488E-004	12	...........	-327.56
	11063	11064	1.59062E+000	1.58710E+000	0.00000E+000	1.59300E+000	-1.19471E-004	12	...........	-327.56
	11089	11090	1.61658E+000	1.67422E+000	0.00000E+000	1.61900E+000	-1.16738E-004	12	...........	-327.56
	11115	11116	1.64249E+000	1.78195E+000	0.00000E+000	1.64500E+000	-1.21188E-004	12	...........	-327.56
	11141	11142	1.66846E+000	1.92678E+000	0.00000E+000	1.67100E+000	-1.17355E-004	12	...........	-327.56
	11167	11168	1.69444E+000	1.95303E+000	0.00000E+000	1.69700E+000	-1.19488E-004	12	...........	-327.56
	11170	11171	1.69747E+000	1.95711E+000	0.00000E+000	1.70000E+000	-1.19055E-004	12	...........	-327.56