File: testing/data/240902_01b_MCL13_cswWE_CV20_initial_test.DTA
EXPLAIN
TAG	CV
TITLE	LABEL	Cyclic Voltammetry	Test &Identifier
DATE	LABEL	9/2/2024	Date
TIME	LABEL	15:45:16	Time
NOTES	NOTES	5	&Notes...

	WE: Ag wire
	RE: Ni/NiO
	CE: steel swirl
PSTAT	PSTAT	REF3000-48128	Potentiostat
VINIT	POTEN	0.00000E+000	F	Initial &E (V)
VLIMIT1	POTEN	1.70000E+000	F	Scan Limit &1 (V)
VLIMIT2	POTEN	-1.00000E+000	F	Scan Limit &2 (V)
VFINAL	POTEN	1.70000E+000	F	Final &E (V)
SCANRATE	QUANT	2.00000E+001	&Scan Rate (mV/s)
STEPSIZE	QUANT	1.00000E+000	St&ep Size (mV)
CYCLES	IQUANT	2	C&ycles (#)
IMODE	SELECTOR	0	I/E Range &Mode
IRANGE	QUANT	5.00000E+001	&Max Current (mA)
AREA	QUANT	1.00000E+000	Electrode &Area (cm^2)
ELECTRODETYPE	SELECTOR	1	Electrode Type
STRIPPING	TOGGLE	F	Used for Stripping
CONDIT	TWOPARAM	F	1.50000E+001	0.00000E+000	Conditionin&g	Time(s)	E(V)
DELAY	TWOPARAM	F	3.00000E+001	0.00000E+000	Init. De&lay	Time(s)	Stab.(mV/s)
EQDELAY	QUANT	0.00000E+000	Equil. &Time (s)
IRCOMP	SELECTOR	0	IRCom&p
PFCOR	QUANT	5.00000E+001	PF Corr. (ohm)
SAMPLINGMODE	SELECTOR	1	Sampling &Mode
EOC	QUANT	0	Open Circuit (V)
PSTATMODEL	IQUANT	5	Pstat Model
PSTATSECTION	LABEL	REF3000-48128	Pstat Section
PSTATSERIALNO	LABEL	48128	Pstat Serial Number
CTRLMODE	IQUANT	1	Control Mode
ELECTROMETER	IQUANT	0	RE=0 or CS=1
IESTAB	IQUANT	2	I/E Stability
CASPEED	IQUANT	4	Control Amp Speed
CONVENTION	IQUANT	1	Current Convention
ICHRANGE	IQUANT	2	Ich Range
ICHRANGEMODE	TOGGLE	F	Ich Auto Range
ICHOFFSETENABLE	TOGGLE	F	Ich Offset Enable
ICHOFFSET	QUANT	0	Ich Offset (V)
ICHFILTER	IQUANT	2	Ich Filter
VCHRANGE	IQUANT	3	Vch Range
VCHRANGEMODE	TOGGLE	T	Vch Auto Range
VCHOFFSETENABLE	TOGGLE	F	Vch Offset Enable
VCHOFFSET	QUANT	0	Vch Offset (V)
VCHFILTER	IQUANT	1	Vch Filter
ACHRANGE	IQUANT	2	Ach Range
ACHOFFSETENABLE	TOGGLE	F	Ach Offset Enable
ACHOFFSET	QUANT	0	Ach Offset (V)
ACHFILTER	IQUANT	1	Ach Filter
IERANGELOWERLIMIT	IQUANT	2	I/E Range Lower Limit
IERANGEMODE	TOGGLE	T	I/E AutoRange
IERANGE	IQUANT	11	I/E Range
POSFEEDENABLE	TOGGLE	F	Positive Feedback IR Comp
POSFEEDRESISTANCE	QUANT	0	Positive Feedback Resistance (ohm)
ACHSELECT	IQUANT	1	Ach Select
SENSECABLEID	IQUANT	14	Sense Cable ID
PWRCABLEID	IQUANT	7	Power Cable ID
DCCALDATE	LABEL	8/16/2024	DC Calibration Date
ACCALDATE	LABEL	8/16/2024	AC Calibration Date
THERMOSELECT	IQUANT	1	Thermo Select
FRAMEWORKVERSION	LABEL	7.10.3	Framework Version
INSTRUMENTVERSION	LABEL	4.91	Instrument Version
COMMVERSION	LABEL	5.10	Communications Version
CPUPLDVERSION	LABEL	6.00	CPU PLD Version
CTRLPLDVERSION	LABEL	3.21	CTRL PLD Version
PSTATPLDVERSION	LABEL	0.00	PSTAT PLD Version
COMPLIANCEVOLTAGE	IQUANT	0	Compliance Voltage
CURVE1	TABLE
	Pt	T	Vf	Im	Vu	Sig	Ach	IERange	Over	Temp
	#	s	V vs. Ref.	A	V	V	V	#	bits	deg C
	0	0.05	8.09814E-004	1.28569E-002	0.00000E+000	2.98023E-008	-2.67555E-003	11	...........	-327.56
	45	2.3	4.53591E-002	5.38866E-003	0.00000E+000	4.50000E-002	-2.67489E-003	10	...........	-327.56
	90	4.55	9.01924E-002	1.44482E-002	0.00000E+000	9.00000E-002	-2.69189E-003	10	...........	-327.56
	135	6.8	1.35078E-001	1.85386E-002	0.00000E+000	1.35000E-001	-2.67989E-003	10	...........	-327.56
	180	9.05	1.80006E-001	2.15775E-002	0.00000E+000	1.80000E-001	-2.68755E-003	10	...........	-327.56
	225	11.3	2.25413E-001	3.58686E-002	0.00000E+000	2.25000E-001	-2.69122E-003	11	...........	-327.56
	270	13.55	2.69906E-001	7.52778E-002	0.00000E+000	2.70000E-001	-2.69155E-003	11	...........	-327.56
	315	15.8	3.14952E-001	7.29353E-002	0.00000E+000	3.15000E-001	-2.69155E-003	11	...........	-327.56
	360	18.05	3.59745E-001	9.46909E-002	0.00000E+000	3.60000E-001	-2.69622E-003	11	...........	-327.56
	405	20.3	4.04568E-001	1.30474E-001	0.00000E+000	4.05000E-001	-2.67889E-003	11	...........	-327.56
	450	22.55	4.49430E-001	1.63160E-001	0.00000E+000	4.50000E-001	-2.66589E-003	11	...........	-327.56
	495	24.8	4.94581E-001	1.28101E-001	0.00000E+000	4.95000E-001	-2.68155E-003	11	...........	-327.56
	540	27.05	5.39674E-001	8.44658E-002	0.00000E+000	5.40000E-001	-2.67955E-003	11	...........	-327.56
	585	29.3	5.84779E-001	6.27862E-002	0.00000E+000	5.85000E-001	-2.67189E-003	11	...........	-327.56
	630	31.55	6.29804E-001	5.11329E-002	0.00000E+000	6.30000E-001	-2.67922E-003	11	...........	-327.56
	675	33.8	6.74876E-001	4.47428E-002	0.00000E+000	6.75000E-001	-2.67889E-003	11	...........	-327.56
	720	36.05	7.19804E-001	4.07015E-002	0.00000E+000	7.20000E-001	-2.68389E-003	11	...........	-327.56
	765	38.3	7.64773E-001	3.77737E-002	0.00000E+000	7.65000E-001	-2.67422E-003	11	...........	-327.56
	810	40.55	8.09770E-001	3.68111E-002	0.00000E+000	8.10000E-001	-2.68222E-003	11	...........	-327.56
	855	42.8	8.54718E-001	3.65805E-002	0.00000E+000	8.55000E-001	-2.68155E-003	11	...........	-327.56
	900	45.05	8.99668E-001	3.78129E-002	0.00000E+000	9.00000E-001	-2.67789E-003	11	...........	-327.56
	945	47.3	9.44561E-001	4.10926E-002	0.00000E+000	9.45000E-001	-2.67322E-003	11	...........	-327.56
	990	49.55	9.89467E-001	4.80068E-002	0.00000E+000	9.90000E-001	-2.68789E-003	11	...........	-327.56
	1035	51.8	1.03446E+000	5.45023E-002	0.00000E+000	1.03500E+000	-2.67855E-003	11	...........	-327.56
	1080	54.05	1.07936E+000	6.20018E-002	0.00000E+000	1.08000E+000	-2.67555E-003	11	...........	-327.56
	1125	56.3	1.12423E+000	7.04911E-002	0.00000E+000	1.12500E+000	-2.67389E-003	11	...........	-327.56
	1170	58.55	1.16909E+000	7.51944E-002	0.00000E+000	1.17000E+000	-2.67155E-003	11	...........	-327.56
	1215	60.8	1.21409E+000	8.19132E-002	0.00000E+000	1.21500E+000	-2.67289E-003	11	...........	-327.56
	1260	63.05	1.25896E+000	9.46377E-002	0.00000E+000	1.26000E+000	-2.67622E-003	11	...........	-327.56
	1305	65.3	1.30380E+000	1.21069E-001	0.00000E+000	1.30500E+000	-2.67122E-003	11	...........	-327.56
	1350	67.55	1.34857E+000	1.74541E-001	0.00000E+000	1.35000E+000	-2.67689E-003	11	...........	-327.56
	1395	69.8	1.39344E+000	2.52124E-001	0.00000E+000	1.39500E+000	-2.68122E-003	11	...........	-327.56
	1440	72.05	1.43862E+000	3.42693E-001	0.00000E+000	1.44000E+000	-2.66989E-003	12	...........	-327.56
	1485	74.3	1.48347E+000	4.40298E-001	0.00000E+000	1.48500E+000	-2.67189E-003	12	...........	-327.56
	1530	76.55	1.52834E+000	5.38810E-001	0.00000E+000	1.53000E+000	-2.67389E-003	12	...........	-327.56
	1575	78.8	1.57325E+000	6.39564E-001	0.00000E+000	1.57500E+000	-2.68922E-003	12	...........	-327.56
	1620	81.05	1.61814E+000	7.40607E-001	0.00000E+000	1.62000E+000	-2.68422E-003	12	...........	-327.56
	1665	83.3	1.66295E+000	8.44644E-001	0.00000E+000	1.66500E+000	-2.67722E-003	12	...........	-327.56
	1710	85.55	1.68789E+000	9.06771E-001	0.00000E+000	1.69000E+000	-2.67889E-003	12	...........	-327.56
	1755	87.8	1.64304E+000	8.13177E-001	0.00000E+000	1.64500E+000	-2.66622E-003	12	...........	-327.56
	1800	90.05	1.59818E+000	7.16212E-001	0.00000E+000	1.60000E+000	-2.67989E-003	12	...........	-327.56
	1845	92.3	1.55323E+000	6.23737E-001	0.00000E+000	1.55500E+000	-2.68689E-003	12	...........	-327.56
	1890	94.55	1.50836E+000	5.30813E-001	0.00000E+000	1.51000E+000	-2.68622E-003	12	...........	-327.56
	1935	96.8	1.46350E+000	4.42452E-001	0.00000E+000	1.46500E+000	-2.67622E-003	12	...........	-327.56
	1980	99.05	1.41863E+000	3.57067E-001	0.00000E+000	1.42000E+000	-2.67722E-003	12	...........	-327.56
	2025	101.3	1.37367E+000	2.77726E-001	0.00000E+000	1.37500E+000	-2.66622E-003	12	...........	-327.56
	2070	103.55	1.32859E+000	2.01903E-001	0.00000E+000	1.33000E+000	-2.66822E-003	11	...........	-327.56
	2115	105.8	1.28379E+000	1.35851E-001	0.00000E+000	1.28500E+000	-2.66689E-003	11	...........	-327.56
	2160	108.05	1.23902E+000	8.60927E-002	0.00000E+000	1.24000E+000	-2.67389E-003	11	...........	-327.56
	2205	110.3	1.19422E+000	5.48660E-002	0.00000E+000	1.19500E+000	-2.67955E-003	11	...........	-327.56
	2250	112.55	1.14937E+000	3.85787E-002	0.00000E+000	1.15000E+000	-2.68989E-003	11	...........	-327.56
	2295	114.8	1.10450E+000	3.12542E-002	0.00000E+000	1.10500E+000	-2.68255E-003	11	...........	-327.56
	2340	117.05	1.05954E+000	2.92418E-002	0.00000E+000	1.06000E+000	-2.67189E-003	11	...........	-327.56
	2385	119.3	1.01460E+000	2.92531E-002	0.00000E+000	1.01500E+000	-2.67555E-003	11	...........	-327.56
	2430	121.55	9.69594E-001	2.91322E-002	0.00000E+000	9.70000E-001	-2.66955E-003	11	...........	-327.56
	2475	123.8	9.24618E-001	2.97374E-002	0.00000E+000	9.25000E-001	-2.67722E-003	11	...........	-327.56
	2520	126.05	8.79707E-001	3.09221E-002	0.00000E+000	8.80000E-001	-2.67889E-003	11	...........	-327.56
	2565	128.3	8.34672E-001	3.24810E-002	0.00000E+000	8.35000E-001	-2.67855E-003	11	...........	-327.56
	2610	130.55	7.89755E-001	3.17587E-002	0.00000E+000	7.90000E-001	-2.66955E-003	11	...........	-327.56
	2655	132.8	7.44830E-001	3.05841E-002	0.00000E+000	7.45000E-001	-2.68189E-003	11	...........	-327.56
	2700	135.05	6.99912E-001	3.00511E-002	0.00000E+000	7.00000E-001	-2.66089E-003	11	...........	-327.56
	2745	137.3	6.54846E-001	2.95449E-002	0.00000E+000	6.55000E-001	-2.66522E-003	11	...........	-327.56
	2790	139.55	6.09925E-001	2.87032E-002	0.00000E+000	6.10000E-001	-2.67589E-003	11	...........	-327.56
	2835	141.8	5.65024E-001	2.73053E-002	0.00000E+000	5.65000E-001	-2.67022E-003	11	...........	-327.56
	2880	144.05	5.20061E-001	2.44955E-002	0.00000E+000	5.20000E-001	-2.68189E-003	11	...........	-327.56
	2925	146.3	4.74556E-001	2.08813E-002	0.00000E+000	4.75000E-001	-2.66755E-003	10	...........	-327.56
	2970	148.55	4.29669E-001	1.65679E-002	0.00000E+000	4.30000E-001	-2.67655E-003	10	...........	-327.56
	3015	150.8	3.84786E-001	1.16005E-002	0.00000E+000	3.85000E-001	-2.67989E-003	10	...........	-327.56
	3060	153.05	3.39921E-001	5.80693E-003	0.00000E+000	3.40000E-001	-2.67455E-003	10	...........	-327.56
	3105	155.3	2.94581E-001	-1.21375E-003	0.00000E+000	2.95000E-001	-2.66855E-003	9	...........	-327.56
	3150	157.55	2.49723E-001	-1.72275E-003	0.00000E+000	2.50000E-001	-2.66755E-003	9	...........	-327.56
	3195	159.8	2.05314E-001	-3.72156E-003	0.00000E+000	2.05000E-001	-2.67422E-003	10	...........	-327.56
	3240	162.05	1.60394E-001	-6.98894E-003	0.00000E+000	1.60000E-001	-2.67222E-003	10	...........	-327.56
	3285	164.3	1.15467E-001	-9.24354E-003	0.00000E+000	1.15000E-001	-2.67255E-003	10	...........	-327.56
	3330	166.55	7.05392E-002	-9.66563E-003	0.00000E+000	7.00000E-002	-2.66355E-003	10	...........	-327.56
	3375	168.8	2.55863E-002	-1.04822E-002	0.00000E+000	2.50000E-002	-2.67455E-003	10	...........	-327.56
	3420	171.05	-1.93276E-002	-1.11342E-002	0.00000E+000	-2.00000E-002	-2.66422E-003	10	...........	-327.56
	3465	173.3	-6.42697E-002	-1.26001E-002	0.00000E+000	-6.50000E-002	-2.67155E-003	10	...........	-327.56
	3510	175.55	-1.09197E-001	-1.47037E-002	0.00000E+000	-1.10000E-001	-2.67689E-003	10	...........	-327.56
	3555	177.8	-1.54116E-001	-1.68385E-002	0.00000E+000	-1.55000E-001	-2.67555E-003	10	...........	-327.56
	3600	180.05	-1.99010E-001	-2.09443E-002	0.00000E+000	-2.00000E-001	-2.68789E-003	10	...........	-327.56
	3645	182.3	-2.43935E-001	-2.73507E-002	0.00000E+000	-2.45000E-001	-2.67222E-003	11	...........	-327.56
	3690	184.55	-2.88980E-001	-3.73060E-002	0.00000E+000	-2.90000E-001	-2.66855E-003	11	...........	-327.56
	3735	186.8	-3.33923E-001	-5.24838E-002	0.00000E+000	-3.35000E-001	-2.66855E-003	11	...........	-327.56
	3780	189.05	-3.78977E-001	-8.04173E-002	0.00000E+000	-3.80000E-001	-2.67622E-003	11	...........	-327.56
	3825	191.3	-4.23993E-001	-1.25391E-001	0.00000E+000	-4.25000E-001	-2.67555E-003	11	...........	-327.56
	3870	193.55	-4.68986E-001	-1.87804E-001	0.00000E+000	-4.70000E-001	-2.67722E-003	11	...........	-327.56
	3915	195.8	-5.13784E-001	-2.62867E-001	0.00000E+000	-5.15000E-001	-2.67389E-003	11	...........	-327.56
	3960	198.05	-5.58934E-001	-3.46776E-001	0.00000E+000	-5.60000E-001	-2.66422E-003	12	...........	-327.56
	4005	200.3	-6.03840E-001	-4.31554E-001	0.00000E+000	-6.05000E-001	-2.66655E-003	12	...........	-327.56
	4050	202.55	-6.48811E-001	-5.14765E-001	0.00000E+000	-6.50000E-001	-2.66855E-003	12	...........	-327.56
	4095	204.8	-6.93707E-001	-5.92539E-001	0.00000E+000	-6.95000E-001	-2.66522E-003	12	...........	-327.56
	4140	207.05	-7.38567E-001	-6.46838E-001	0.00000E+000	-7.40000E-001	-2.67055E-003	12	...........	-327.56
	4185	209.3	-7.83563E-001	-5.89243E-001	0.00000E+000	-7.85000E-001	-2.68422E-003	12	...........	-327.56
	4230	211.55	-8.28542E-001	-6.36397E-001	0.00000E+000	-8.30000E-001	-2.66855E-003	12	...........	-327.56
	4275	213.8	-8.73431E-001	-7.14341E-001	0.00000E+000	-8.75000E-001	-2.68089E-003	12	...........	-327.56
	4320	216.05	-9.18278E-001	-8.36124E-001	0.00000E+000	-9.20000E-001	-2.66589E-003	12	...........	-327.56
	4365	218.3	-9.63094E-001	-9.85251E-001	0.00000E+000	-9.65000E-001	-2.67255E-003	12	...........	-327.56
	4400	220.05	-9.98066E-001	-1.04739E+000	0.00000E+000	-1.00000E+000	-2.67655E-003	12	...........	-327.56
CURVE2	TABLE
	Pt	T	Vf	Im	Vu	Sig	Ach	IERange	Over	Temp
	#	s	V vs. Ref.	A	V	V	V	#	bits	deg C
	4401	220.1	-9.97025E-001	-1.04402E+000	0.00000E+000	-9.99000E-001	-2.66655E-003	12	...........	-327.56
	4446	222.35	-9.52176E-001	-9.11465E-001	0.00000E+000	-9.54000E-001	-2.67522E-003	12	...........	-327.56
	4491	224.6	-9.07356E-001	-7.92458E-001	0.00000E+000	-9.09000E-001	-2.65489E-003	12	...........	-327.56
	4536	226.85	-8.62431E-001	-6.77019E-001	0.00000E+000	-8.64000E-001	-2.67489E-003	12	...........	-327.56
	4581	229.1	-8.17591E-001	-5.62006E-001	0.00000E+000	-8.19000E-001	-2.66255E-003	12	...........	-327.56
	4626	231.35	-7.72709E-001	-4.51538E-001	0.00000E+000	-7.74000E-001	-2.67289E-003	12	...........	-327.56
	4671	233.6	-7.27847E-001	-3.41211E-001	0.00000E+000	-7.29000E-001	-2.67855E-003	12	...........	-327.56
	4716	235.85	-6.82656E-001	-2.33977E-001	0.00000E+000	-6.84000E-001	-2.67055E-003	11	...........	-327.56
	4761	238.1	-6.37829E-001	-1.35417E-001	0.00000E+000	-6.39000E-001	-2.67322E-003	11	...........	-327.56
	4806	240.35	-5.92740E-001	-5.04088E-002	0.00000E+000	-5.94000E-001	-2.67455E-003	11	...........	-327.56
	4851	242.6	-5.48298E-001	1.72458E-002	0.00000E+000	-5.49000E-001	-2.67122E-003	10	...........	-327.56
	4896	244.85	-5.03189E-001	8.14358E-002	0.00000E+000	-5.04000E-001	-2.67389E-003	11	...........	-327.56
	4941	247.1	-4.58502E-001	1.47876E-001	0.00000E+000	-4.59000E-001	-2.66655E-003	11	...........	-327.56
	4986	249.35	-4.13709E-001	2.15553E-001	0.00000E+000	-4.14000E-001	-2.67922E-003	11	...........	-327.56
	5031	251.6	-3.68569E-001	2.90763E-001	0.00000E+000	-3.69000E-001	-2.66422E-003	12	...........	-327.56
	5076	253.85	-3.23536E-001	3.08979E-001	0.00000E+000	-3.24000E-001	-2.67589E-003	12	...........	-327.56
	5121	256.1	-2.78637E-001	3.50187E-001	0.00000E+000	-2.79000E-001	-2.66489E-003	12	...........	-327.56
	5166	258.35	-2.33688E-001	3.79209E-001	0.00000E+000	-2.34000E-001	-2.66122E-003	12	...........	-327.56
	5211	260.6	-1.88730E-001	3.80907E-001	0.00000E+000	-1.89000E-001	-2.66989E-003	12	...........	-327.56
	5256	262.85	-1.43761E-001	3.53209E-001	0.00000E+000	-1.44000E-001	-2.67155E-003	12	...........	-327.56
	5301	265.1	-9.87206E-002	2.61672E-001	0.00000E+000	-9.90000E-002	-2.67289E-003	12	...........	-327.56
	5346	267.35	-5.40226E-002	2.30022E-001	0.00000E+000	-5.40000E-002	-2.67655E-003	11	...........	-327.56
	5391	269.6	-9.06285E-003	2.35355E-001	0.00000E+000	-8.99997E-003	-2.67755E-003	11	...........	-327.56
	5436	271.85	3.58345E-002	2.44455E-001	0.00000E+000	3.60000E-002	-2.66555E-003	11	...........	-327.56
	5481	274.1	8.07803E-002	2.49338E-001	0.00000E+000	8.10000E-002	-2.66089E-003	11	...........	-327.56
	5526	276.35	1.25752E-001	2.40206E-001	0.00000E+000	1.26000E-001	-2.67089E-003	11	...........	-327.56
	5571	278.6	1.70700E-001	2.37884E-001	0.00000E+000	1.71000E-001	-2.67555E-003	11	...........	-327.56
	5616	280.85	2.15600E-001	2.67955E-001	0.00000E+000	2.16000E-001	-2.67055E-003	11	...........	-327.56
	5661	283.1	2.60817E-001	2.92216E-001	0.00000E+000	2.61000E-001	-2.67655E-003	12	...........	-327.56
	5706	285.35	3.05650E-001	3.04732E-001	0.00000E+000	3.06000E-001	-2.67089E-003	12	...........	-327.56
	5751	287.6	3.50565E-001	3.15207E-001	0.00000E+000	3.51000E-001	-2.67089E-003	12	...........	-327.56
	5796	289.85	3.95564E-001	3.50435E-001	0.00000E+000	3.96000E-001	-2.66489E-003	12	...........	-327.56
	5841	292.1	4.40494E-001	3.92809E-001	0.00000E+000	4.41000E-001	-2.67189E-003	12	...........	-327.56
	5886	294.35	4.85376E-001	4.56636E-001	0.00000E+000	4.86000E-001	-2.67255E-003	12	...........	-327.56
	5931	296.6	5.30246E-001	5.05767E-001	0.00000E+000	5.31000E-001	-2.67289E-003	12	...........	-327.56
	5976	298.85	5.75434E-001	3.21554E-001	0.00000E+000	5.76000E-001	-2.66822E-003	12	...........	-327.56
	6021	301.1	6.20415E-001	2.87547E-001	0.00000E+000	6.21000E-001	-2.67222E-003	12	...........	-327.56
	6066	303.35	6.65391E-001	2.68501E-001	0.00000E+000	6.66000E-001	-2.66622E-003	12	...........	-327.56
	6111	305.6	7.10316E-001	2.46174E-001	0.00000E+000	7.11000E-001	-2.65722E-003	12	...........	-327.56
	6156	307.85	7.55125E-001	2.04417E-001	0.00000E+000	7.56000E-001	-2.66189E-003	11	...........	-327.56
	6201	310.1	8.00147E-001	1.77411E-001	0.00000E+000	8.01000E-001	-2.67555E-003	11	...........	-327.56
	6246	312.35	8.45078E-001	1.60923E-001	0.00000E+000	8.46000E-001	-2.67455E-003	11	...........	-327.56
	6291	314.6	8.90044E-001	1.50445E-001	0.00000E+000	8.91000E-001	-2.66222E-003	11	...........	-327.56
	6336	316.85	9.34968E-001	1.45780E-001	0.00000E+000	9.36000E-001	-2.66789E-003	11	...........	-327.56
[...]
	8959	448	2.03402E-001	4.32836E-002	0.00000E+000	2.03000E-001	-2.66622E-003	11	...........	-327.56
	8977	448.9	2.21330E-001	5.28497E-002	0.00000E+000	2.21000E-001	-2.67289E-003	11	...........	-327.56
	8995	449.8	2.39228E-001	6.13923E-002	0.00000E+000	2.39000E-001	-2.67222E-003	11	...........	-327.56
	9013	450.7	2.57170E-001	6.68983E-002	0.00000E+000	2.57000E-001	-2.67955E-003	11	...........	-327.56
	9031	451.6	2.74926E-001	7.63427E-002	0.00000E+000	2.75000E-001	-2.66489E-003	11	...........	-327.56
	9049	452.5	2.92927E-001	8.40691E-002	0.00000E+000	2.93000E-001	-2.66255E-003	11	...........	-327.56
	9067	453.4	3.10768E-001	9.49028E-002	0.00000E+000	3.11000E-001	-2.66689E-003	11	...........	-327.56
	9085	454.3	3.28695E-001	1.07192E-001	0.00000E+000	3.29000E-001	-2.66222E-003	11	...........	-327.56
	9103	455.2	3.46592E-001	1.19115E-001	0.00000E+000	3.47000E-001	-2.66822E-003	11	...........	-327.56
	9121	456.1	3.64626E-001	1.28890E-001	0.00000E+000	3.65000E-001	-2.66122E-003	11	...........	-327.56
	9139	457	3.82570E-001	1.49924E-001	0.00000E+000	3.83000E-001	-2.67022E-003	11	...........	-327.56
	9157	457.9	4.00467E-001	1.57195E-001	0.00000E+000	4.01000E-001	-2.66522E-003	11	...........	-327.56
	9175	458.8	4.18478E-001	1.76622E-001	0.00000E+000	4.19000E-001	-2.67555E-003	11	...........	-327.56
	9193	459.7	4.36455E-001	1.71801E-001	0.00000E+000	4.37000E-001	-2.66255E-003	11	...........	-327.56
	9211	460.6	4.54509E-001	1.52376E-001	0.00000E+000	4.55000E-001	-2.67222E-003	11	...........	-327.56
	9229	461.5	4.72597E-001	1.20627E-001	0.00000E+000	4.73000E-001	-2.67955E-003	11	...........	-327.56
	9247	462.4	4.90648E-001	1.00525E-001	0.00000E+000	4.91000E-001	-2.65889E-003	11	...........	-327.56
	9265	463.3	5.08738E-001	7.91440E-002	0.00000E+000	5.09000E-001	-2.66755E-003	11	...........	-327.56
	9283	464.2	5.26677E-001	7.15190E-002	0.00000E+000	5.27000E-001	-2.66589E-003	11	...........	-327.56
	9301	465.1	5.44826E-001	6.42706E-002	0.00000E+000	5.45000E-001	-2.66689E-003	11	...........	-327.56
	9319	466	5.62762E-001	6.52919E-002	0.00000E+000	5.63000E-001	-2.67455E-003	11	...........	-327.56
	9337	466.9	5.80822E-001	5.73982E-002	0.00000E+000	5.81000E-001	-2.67322E-003	11	...........	-327.56
	9355	467.8	5.98829E-001	5.99999E-002	0.00000E+000	5.99000E-001	-2.66789E-003	11	...........	-327.56
	9373	468.7	6.16825E-001	5.24596E-002	0.00000E+000	6.17000E-001	-2.65989E-003	11	...........	-327.56
	9391	469.6	6.34809E-001	4.97913E-002	0.00000E+000	6.35000E-001	-2.66355E-003	11	...........	-327.56
	9409	470.5	6.52871E-001	4.80782E-002	0.00000E+000	6.53000E-001	-2.66955E-003	11	...........	-327.56
	9427	471.4	6.70840E-001	4.71786E-002	0.00000E+000	6.71000E-001	-2.67055E-003	11	...........	-327.56
	9445	472.3	6.88819E-001	4.57529E-002	0.00000E+000	6.89000E-001	-2.67355E-003	11	...........	-327.56
	9463	473.2	7.06759E-001	4.51666E-002	0.00000E+000	7.07000E-001	-2.66989E-003	11	...........	-327.56
	9481	474.1	7.24782E-001	4.45855E-002	0.00000E+000	7.25000E-001	-2.66655E-003	11	...........	-327.56
	9499	475	7.42707E-001	4.45486E-002	0.00000E+000	7.43000E-001	-2.67422E-003	11	...........	-327.56
	9517	475.9	7.60711E-001	4.49400E-002	0.00000E+000	7.61000E-001	-2.66955E-003	11	...........	-327.56
	9535	476.8	7.78711E-001	5.01853E-002	0.00000E+000	7.79000E-001	-2.66889E-003	11	...........	-327.56
	9553	477.7	7.96715E-001	4.71500E-002	0.00000E+000	7.97000E-001	-2.67189E-003	11	...........	-327.56
	9571	478.6	8.14663E-001	4.69572E-002	0.00000E+000	8.15000E-001	-2.66389E-003	11	...........	-327.56
	9589	479.5	8.32576E-001	4.78354E-002	0.00000E+000	8.33000E-001	-2.66989E-003	11	...........	-327.56
	9607	480.4	8.50637E-001	4.83701E-002	0.00000E+000	8.51000E-001	-2.66022E-003	11	...........	-327.56
	9625	481.3	8.68589E-001	4.95387E-002	0.00000E+000	8.69000E-001	-2.67022E-003	11	...........	-327.56
	9643	482.2	8.86615E-001	5.07310E-002	0.00000E+000	8.87000E-001	-2.66322E-003	11	...........	-327.56
	9661	483.1	9.04590E-001	5.18447E-002	0.00000E+000	9.05000E-001	-2.66855E-003	11	...........	-327.56
	9679	484	9.22482E-001	5.37499E-002	0.00000E+000	9.23000E-001	-2.67189E-003	11	...........	-327.56
	9697	484.9	9.40441E-001	5.60914E-002	0.00000E+000	9.41000E-001	-2.67655E-003	11	...........	-327.56
	9715	485.8	9.58464E-001	5.91039E-002	0.00000E+000	9.59000E-001	-2.67055E-003	11	...........	-327.56
	9733	486.7	9.76382E-001	6.25617E-002	0.00000E+000	9.77000E-001	-2.67289E-003	11	...........	-327.56
	9751	487.6	9.94330E-001	6.55581E-002	0.00000E+000	9.95000E-001	-2.66955E-003	11	...........	-327.56
	9769	488.5	1.01224E+000	7.01332E-002	0.00000E+000	1.01300E+000	-2.65955E-003	11	...........	-327.56
	9787	489.4	1.03026E+000	7.45945E-002	0.00000E+000	1.03100E+000	-2.66222E-003	11	...........	-327.56
	9805	490.3	1.04822E+000	7.86325E-002	0.00000E+000	1.04900E+000	-2.67189E-003	11	...........	-327.56
	9823	491.2	1.06610E+000	8.43779E-002	0.00000E+000	1.06700E+000	-2.66722E-003	11	...........	-327.56
	9841	492.1	1.08412E+000	9.11121E-002	0.00000E+000	1.08500E+000	-2.67922E-003	11	...........	-327.56
	9859	493	1.10203E+000	9.83366E-002	0.00000E+000	1.10300E+000	-2.66622E-003	11	...........	-327.56
	9877	493.9	1.11996E+000	1.14669E-001	0.00000E+000	1.12100E+000	-2.66455E-003	11	...........	-327.56
	9895	494.8	1.13795E+000	1.14201E-001	0.00000E+000	1.13900E+000	-2.66722E-003	11	...........	-327.56
	9913	495.7	1.15589E+000	1.22440E-001	0.00000E+000	1.15700E+000	-2.66455E-003	11	...........	-327.56
	9931	496.6	1.17382E+000	1.31968E-001	0.00000E+000	1.17500E+000	-2.66689E-003	11	...........	-327.56
	9949	497.5	1.19173E+000	1.43820E-001	0.00000E+000	1.19300E+000	-2.66022E-003	11	...........	-327.56
	9967	498.4	1.20981E+000	1.43765E-001	0.00000E+000	1.21100E+000	-2.66689E-003	11	...........	-327.56
	9985	499.3	1.22774E+000	1.49773E-001	0.00000E+000	1.22900E+000	-2.66755E-003	11	...........	-327.56
	10003	500.2	1.24568E+000	1.62075E-001	0.00000E+000	1.24700E+000	-2.66455E-003	11	...........	-327.56
	10021	501.1	1.26372E+000	1.60379E-001	0.00000E+000	1.26500E+000	-2.66722E-003	11	...........	-327.56
	10039	502	1.28169E+000	1.66655E-001	0.00000E+000	1.28300E+000	-2.66922E-003	11	...........	-327.56
	10057	502.9	1.29962E+000	1.73178E-001	0.00000E+000	1.30100E+000	-2.66189E-003	11	...........	-327.56
	10075	503.8	1.31766E+000	1.81780E-001	0.00000E+000	1.31900E+000	-2.65789E-003	11	...........	-327.56
	10093	504.7	1.33552E+000	2.05981E-001	0.00000E+000	1.33700E+000	-2.67189E-003	11	...........	-327.56
	10111	505.6	1.35350E+000	2.05441E-001	0.00000E+000	1.35500E+000	-2.66755E-003	11	...........	-327.56
	10129	506.5	1.37144E+000	2.22326E-001	0.00000E+000	1.37300E+000	-2.66455E-003	11	...........	-327.56
	10147	507.4	1.38942E+000	2.43716E-001	0.00000E+000	1.39100E+000	-2.65622E-003	11	...........	-327.56
	10165	508.3	1.40766E+000	2.70414E-001	0.00000E+000	1.40900E+000	-2.66855E-003	12	...........	-327.56
	10183	509.2	1.42556E+000	3.01534E-001	0.00000E+000	1.42700E+000	-2.66855E-003	12	...........	-327.56
	10201	510.1	1.44358E+000	3.36895E-001	0.00000E+000	1.44500E+000	-2.66055E-003	12	...........	-327.56
	10219	511	1.46152E+000	3.70380E-001	0.00000E+000	1.46300E+000	-2.66789E-003	12	...........	-327.56
	10237	511.9	1.47944E+000	4.06633E-001	0.00000E+000	1.48100E+000	-2.66222E-003	12	...........	-327.56
	10255	512.8	1.49745E+000	4.46467E-001	0.00000E+000	1.49900E+000	-2.66289E-003	12	...........	-327.56
	10273	513.7	1.51541E+000	4.84713E-001	0.00000E+000	1.51700E+000	-2.66589E-003	12	...........	-327.56
	10291	514.6	1.53331E+000	5.24599E-001	0.00000E+000	1.53500E+000	-2.67889E-003	12	...........	-327.56
	10309	515.5	1.55120E+000	5.64792E-001	0.00000E+000	1.55300E+000	-2.66922E-003	12	...........	-327.56
	10327	516.4	1.56924E+000	6.03339E-001	0.00000E+000	1.57100E+000	-2.66255E-003	12	...........	-327.56
	10345	517.3	1.58712E+000	6.44274E-001	0.00000E+000	1.58900E+000	-2.67189E-003	12	...........	-327.56
	10363	518.2	1.60509E+000	6.84865E-001	0.00000E+000	1.60700E+000	-2.66322E-003	12	...........	-327.56
	10381	519.1	1.62308E+000	7.26391E-001	0.00000E+000	1.62500E+000	-2.65522E-003	12	...........	-327.56
	10399	520	1.64100E+000	7.69877E-001	0.00000E+000	1.64300E+000	-2.67222E-003	12	...........	-327.56
	10417	520.9	1.65898E+000	8.11165E-001	0.00000E+000	1.66100E+000	-2.67255E-003	12	...........	-327.56
	10435	521.8	1.67686E+000	8.56098E-001	0.00000E+000	1.67900E+000	-2.67222E-003	12	...........	-327.56
	10453	522.7	1.69488E+000	8.99809E-001	0.00000E+000	1.69700E+000	-2.67022E-003	12	...........	-327.56
	10456	522.85	1.69787E+000	9.08407E-001	0.00000E+000	1.70000E+000	-2.67122E-003	12	...........	-327.56