File: testing/data/240902_20_MCL13_cspWE_CV2_750C_CO2.DTA
EXPLAIN
TAG	CV
TITLE	LABEL	Cyclic Voltammetry	Test Identifier
DATE	LABEL	9/3/2024	Date
TIME	LABEL	19:29:48	Time
NOTES	NOTES	5	Notes...
	cswWE - carbon steel wire
cspWE - carbon steel plate 2x2 tapered

Carbon steel plate counter electrode
Carbon steel wire reference electrode
PSTAT	PSTAT	REF3000-48128	Potentiostat
VINIT	POTEN	0.00000E+000	T	Initial E (V)
VLIMIT1	POTEN	1.70000E+000	F	Scan Limit 1 (V)
VLIMIT2	POTEN	-8.00000E-001	F	Scan Limit 2 (V)
VFINAL	POTEN	1.70000E+000	F	Final E (V)
SCANRATE	QUANT	2.00000E+000	Scan Rate (mV/s)
STEPSIZE	QUANT	1.00000E+000	Step Size (mV)
CYCLES	IQUANT	2	Cycles (#)
IMODE	SELECTOR	0	I/E Range Mode
IRANGE	QUANT	3.00000E-001	Max Current (mA)
AREA	QUANT	1.00000E+000	Sample Area (cm^2)
EQDELAY	QUANT	0.00000E+000	Equil. Time (s)
IRCOMP	SELECTOR	0	IRComp
PFCOR	QUANT	5.00000E+001	PF Corr. (ohm)
SAMPLINGMODE	SELECTOR	1	Sampling Mode
EOC	QUANT	0.5101995	Open Circuit (V)
ELECTRODETYPE	SELECTOR	0	Electrode Type
STRIPPING	TOGGLE	F	Used for Stripping
SEQUENCER	TOGGLE	TRUE	Run as Sequence
PSTATMODEL	IQUANT	5	Pstat Model
PSTATSECTION	LABEL	REF3000-48128	Pstat Section
PSTATSERIALNO	LABEL	48128	Pstat Serial Number
CTRLMODE	IQUANT	1	Control Mode
ELECTROMETER	IQUANT	0	RE=0 or CS=1
IESTAB	IQUANT	2	I/E Stability
CASPEED	IQUANT	4	Control Amp Speed
CONVENTION	IQUANT	1	Current Convention
ICHRANGE	IQUANT	2	Ich Range
ICHRANGEMODE	TOGGLE	F	Ich Auto Range
ICHOFFSETENABLE	TOGGLE	F	Ich Offset Enable
ICHOFFSET	QUANT	0	Ich Offset (V)
ICHFILTER	IQUANT	3	Ich Filter
VCHRANGE	IQUANT	2	Vch Range
VCHRANGEMODE	TOGGLE	F	Vch Auto Range
VCHOFFSETENABLE	TOGGLE	F	Vch Offset Enable
VCHOFFSET	QUANT	0	Vch Offset (V)
VCHFILTER	IQUANT	3	Vch Filter
ACHRANGE	IQUANT	2	Ach Range
ACHOFFSETENABLE	TOGGLE	F	Ach Offset Enable
ACHOFFSET	QUANT	0	Ach Offset (V)
ACHFILTER	IQUANT	1	Ach Filter
IERANGELOWERLIMIT	IQUANT	2	I/E Range Lower Limit
IERANGEMODE	TOGGLE	T	I/E AutoRange
IERANGE	IQUANT	9	I/E Range
POSFEEDENABLE	TOGGLE	F	Positive Feedback IR Comp
POSFEEDRESISTANCE	QUANT	0	Positive Feedback Resistance (ohm)
ACHSELECT	IQUANT	4	Ach Select
SENSECABLEID	IQUANT	14	Sense Cable ID
PWRCABLEID	IQUANT	7	Power Cable ID
DCCALDATE	LABEL	8/16/2024	DC Calibration Date
ACCALDATE	LABEL	8/16/2024	AC Calibration Date
THERMOSELECT	IQUANT	1	Thermo Select
FRAMEWORKVERSION	LABEL	7.10.3	Framework Version
INSTRUMENTVERSION	LABEL	4.91	Instrument Version
COMMVERSION	LABEL	5.10	Communications Version
CPUPLDVERSION	LABEL	6.00	CPU PLD Version
CTRLPLDVERSION	LABEL	3.21	CTRL PLD Version
PSTATPLDVERSION	LABEL	0.00	PSTAT PLD Version
COMPLIANCEVOLTAGE	IQUANT	0	Compliance Voltage
CURVE1	TABLE
	Pt	T	Vf	Im	Vu	Sig	Ach	IERange	Over	Temp
	#	s	V vs. Ref.	A	V	V	V	#	bits	deg C
	0	0.5	5.09435E-001	1.93137E-003	0.00000E+000	5.10200E-001	-1.02255E-004	9	...........	-327.56
	38	19.5	5.47317E-001	2.63010E-002	0.00000E+000	5.48200E-001	-1.02321E-004	10	...........	-327.56
	76	38.5	5.85530E-001	3.76996E-002	0.00000E+000	5.86200E-001	-1.18221E-004	11	...........	-327.56
	114	57.5	6.23495E-001	4.15807E-002	0.00000E+000	6.24200E-001	-1.11821E-004	11	...........	-327.56
	152	76.5	6.61456E-001	4.03368E-002	0.00000E+000	6.62200E-001	-1.16321E-004	11	...........	-327.56
	190	95.5	6.99464E-001	4.29027E-002	0.00000E+000	7.00200E-001	-1.14355E-004	11	...........	-327.56
	228	114.5	7.37377E-001	3.94073E-002	0.00000E+000	7.38200E-001	-1.15755E-004	11	...........	-327.56
	266	133.5	7.75366E-001	3.76546E-002	0.00000E+000	7.76200E-001	-1.15988E-004	11	...........	-327.56
	304	152.5	8.13310E-001	3.56283E-002	0.00000E+000	8.14200E-001	-1.11388E-004	11	...........	-327.56
	342	171.5	8.51300E-001	3.40341E-002	0.00000E+000	8.52200E-001	-1.14555E-004	11	...........	-327.56
	380	190.5	8.89210E-001	3.31480E-002	0.00000E+000	8.90200E-001	-1.14855E-004	11	...........	-327.56
	418	209.5	9.27208E-001	3.31182E-002	0.00000E+000	9.28200E-001	-1.14121E-004	11	...........	-327.56
	456	228.5	9.65139E-001	3.38057E-002	0.00000E+000	9.66200E-001	-1.15388E-004	11	...........	-327.56
	494	247.5	1.00315E+000	3.66263E-002	0.00000E+000	1.00420E+000	-1.12088E-004	11	...........	-327.56
	532	266.5	1.04104E+000	4.22564E-002	0.00000E+000	1.04220E+000	-1.15255E-004	11	...........	-327.56
	570	285.5	1.07905E+000	5.55738E-002	0.00000E+000	1.08020E+000	-1.08155E-004	11	...........	-327.56
	608	304.5	1.11693E+000	7.54283E-002	0.00000E+000	1.11820E+000	-1.12955E-004	11	...........	-327.56
	646	323.5	1.15489E+000	1.03566E-001	0.00000E+000	1.15620E+000	-1.13788E-004	11	...........	-327.56
	684	342.5	1.19272E+000	1.50475E-001	0.00000E+000	1.19420E+000	-1.11455E-004	11	...........	-327.56
	722	361.5	1.23064E+000	2.22609E-001	0.00000E+000	1.23220E+000	-1.12621E-004	11	...........	-327.56
	760	380.5	1.26875E+000	2.73095E-001	0.00000E+000	1.27020E+000	-1.18055E-004	12	...........	-327.56
	798	399.5	1.30672E+000	3.79345E-001	0.00000E+000	1.30820E+000	-1.12388E-004	12	...........	-327.56
	836	418.5	1.34448E+000	5.28219E-001	0.00000E+000	1.34620E+000	-1.13455E-004	12	...........	-327.56
	874	437.5	1.38239E+000	6.83033E-001	0.00000E+000	1.38420E+000	-1.12988E-004	12	...........	-327.56
	912	456.5	1.42030E+000	8.59337E-001	0.00000E+000	1.42220E+000	-1.11888E-004	12	...........	-327.56
	950	475.5	1.45815E+000	1.01959E+000	0.00000E+000	1.46020E+000	-1.14855E-004	12	...........	-327.56
	988	494.5	1.49607E+000	1.15421E+000	0.00000E+000	1.49820E+000	-1.15555E-004	12	...........	-327.56
	1026	513.5	1.53395E+000	1.27797E+000	0.00000E+000	1.53620E+000	-1.14455E-004	12	...........	-327.56
	1064	532.5	1.57188E+000	1.40998E+000	0.00000E+000	1.57420E+000	-1.10488E-004	12	...........	-327.56
	1102	551.5	1.60977E+000	1.49889E+000	0.00000E+000	1.61220E+000	-1.14855E-004	12	...........	-327.56
	1140	570.5	1.64771E+000	1.62842E+000	0.00000E+000	1.65020E+000	-1.14255E-004	12	...........	-327.56
	1178	589.5	1.68564E+000	1.73825E+000	0.00000E+000	1.68820E+000	-1.14455E-004	12	...........	-327.56
	1216	608.5	1.67170E+000	1.70327E+000	0.00000E+000	1.67420E+000	-1.13721E-004	12	...........	-327.56
	1254	627.5	1.63374E+000	1.59311E+000	0.00000E+000	1.63620E+000	-1.15355E-004	12	...........	-327.56
	1292	646.5	1.59583E+000	1.47996E+000	0.00000E+000	1.59820E+000	-1.13888E-004	12	...........	-327.56
	1330	665.5	1.55786E+000	1.35776E+000	0.00000E+000	1.56020E+000	-1.14588E-004	12	...........	-327.56
	1368	684.5	1.51999E+000	1.24667E+000	0.00000E+000	1.52220E+000	-1.16321E-004	12	...........	-327.56
	1406	703.5	1.48205E+000	1.13876E+000	0.00000E+000	1.48420E+000	-1.16288E-004	12	...........	-327.56
	1444	722.5	1.44418E+000	1.02842E+000	0.00000E+000	1.44620E+000	-1.15821E-004	12	...........	-327.56
	1482	741.5	1.40628E+000	9.21909E-001	0.00000E+000	1.40820E+000	-1.13021E-004	12	...........	-327.56
	1520	760.5	1.36838E+000	8.13961E-001	0.00000E+000	1.37020E+000	-1.13655E-004	12	...........	-327.56
	1558	779.5	1.33046E+000	7.06123E-001	0.00000E+000	1.33220E+000	-1.16921E-004	12	...........	-327.56
	1596	798.5	1.29259E+000	6.01730E-001	0.00000E+000	1.29420E+000	-1.09088E-004	12	...........	-327.56
	1634	817.5	1.25466E+000	4.97690E-001	0.00000E+000	1.25620E+000	-1.10655E-004	12	...........	-327.56
	1672	836.5	1.21667E+000	4.02225E-001	0.00000E+000	1.21820E+000	-1.14021E-004	12	...........	-327.56
	1710	855.5	1.17885E+000	3.06383E-001	0.00000E+000	1.18020E+000	-1.13188E-004	12	...........	-327.56
	1748	874.5	1.14071E+000	2.15951E-001	0.00000E+000	1.14220E+000	-1.11555E-004	11	...........	-327.56
	1786	893.5	1.10288E+000	1.40740E-001	0.00000E+000	1.10420E+000	-1.09921E-004	11	...........	-327.56
	1824	912.5	1.06496E+000	8.09744E-002	0.00000E+000	1.06620E+000	-1.12355E-004	11	...........	-327.56
	1862	931.5	1.02712E+000	4.31045E-002	0.00000E+000	1.02820E+000	-1.12188E-004	11	...........	-327.56
	1900	950.5	9.89097E-001	3.00349E-002	0.00000E+000	9.90200E-001	-1.11455E-004	11	...........	-327.56
	1938	969.5	9.50945E-001	2.39106E-002	0.00000E+000	9.52200E-001	-1.06221E-004	10	...........	-327.56
	1976	988.5	9.12976E-001	2.22809E-002	0.00000E+000	9.14200E-001	-1.12688E-004	10	...........	-327.56
	2014	1007.5	8.75070E-001	2.16329E-002	0.00000E+000	8.76200E-001	-1.07821E-004	10	...........	-327.56
	2052	1026.5	8.37027E-001	2.12575E-002	0.00000E+000	8.38200E-001	-1.09455E-004	10	...........	-327.56
	2090	1045.5	7.99159E-001	2.09911E-002	0.00000E+000	8.00200E-001	-1.08455E-004	10	...........	-327.56
	2128	1064.5	7.61133E-001	2.07452E-002	0.00000E+000	7.62200E-001	-1.09188E-004	10	...........	-327.56
	2166	1083.5	7.23190E-001	2.02416E-002	0.00000E+000	7.24200E-001	-1.11355E-004	10	...........	-327.56
	2204	1102.5	6.85226E-001	1.86517E-002	0.00000E+000	6.86200E-001	-1.08955E-004	10	...........	-327.56
	2242	1121.5	6.47357E-001	1.63160E-002	0.00000E+000	6.48200E-001	-1.10088E-004	10	...........	-327.56
	2280	1140.5	6.09423E-001	1.35679E-002	0.00000E+000	6.10200E-001	-1.13555E-004	10	...........	-327.56
	2318	1159.5	5.71497E-001	1.01478E-002	0.00000E+000	5.72200E-001	-1.12555E-004	10	...........	-327.56
	2356	1178.5	5.33539E-001	5.15230E-003	0.00000E+000	5.34200E-001	-1.09621E-004	10	...........	-327.56
	2394	1197.5	4.95868E-001	-1.17372E-003	0.00000E+000	4.96200E-001	-1.10855E-004	9	...........	-327.56
	2432	1216.5	4.57810E-001	-8.57623E-003	0.00000E+000	4.58200E-001	-1.12688E-004	10	...........	-327.56
	2470	1235.5	4.19974E-001	-1.62347E-002	0.00000E+000	4.20200E-001	-1.07088E-004	10	...........	-327.56
	2508	1254.5	3.82029E-001	-2.34683E-002	0.00000E+000	3.82200E-001	-1.03855E-004	10	...........	-327.56
	2546	1273.5	3.43872E-001	-2.97859E-002	0.00000E+000	3.44200E-001	-1.09321E-004	11	...........	-327.56
	2584	1292.5	3.05887E-001	-3.40304E-002	0.00000E+000	3.06200E-001	-1.11088E-004	11	...........	-327.56
	2622	1311.5	2.67942E-001	-3.69329E-002	0.00000E+000	2.68200E-001	-1.11288E-004	11	...........	-327.56
	2660	1330.5	2.29911E-001	-3.83206E-002	0.00000E+000	2.30200E-001	-1.14255E-004	11	...........	-327.56
	2698	1349.5	1.91998E-001	-3.94981E-002	0.00000E+000	1.92200E-001	-1.12121E-004	11	...........	-327.56
	2736	1368.5	1.53994E-001	-4.16197E-002	0.00000E+000	1.54200E-001	-1.12688E-004	11	...........	-327.56
	2774	1387.5	1.15977E-001	-4.25272E-002	0.00000E+000	1.16200E-001	-1.13888E-004	11	...........	-327.56
	2812	1406.5	7.81208E-002	-4.16504E-002	0.00000E+000	7.82000E-002	-1.12121E-004	11	...........	-327.56
	2850	1425.5	4.00701E-002	-3.89190E-002	0.00000E+000	4.02000E-002	-1.15188E-004	11	...........	-327.56
	2888	1444.5	2.14911E-003	-3.54518E-002	0.00000E+000	2.20004E-003	-1.14455E-004	11	...........	-327.56
	2926	1463.5	-3.56769E-002	-3.21875E-002	0.00000E+000	-3.58000E-002	-1.12221E-004	11	...........	-327.56
	2964	1482.5	-7.35943E-002	-3.00844E-002	0.00000E+000	-7.38000E-002	-1.15821E-004	11	...........	-327.56
	3002	1501.5	-1.11600E-001	-2.88049E-002	0.00000E+000	-1.11800E-001	-1.12955E-004	11	...........	-327.56
	3040	1520.5	-1.49505E-001	-2.90562E-002	0.00000E+000	-1.49800E-001	-1.12588E-004	11	...........	-327.56
	3078	1539.5	-1.87543E-001	-3.02972E-002	0.00000E+000	-1.87800E-001	-1.12088E-004	11	...........	-327.56
	3116	1558.5	-2.25415E-001	-3.27157E-002	0.00000E+000	-2.25800E-001	-1.17088E-004	11	...........	-327.56
	3154	1577.5	-2.63445E-001	-3.71600E-002	0.00000E+000	-2.63800E-001	-1.12721E-004	11	...........	-327.56
	3192	1596.5	-3.01367E-001	-4.29903E-002	0.00000E+000	-3.01800E-001	-1.16688E-004	11	...........	-327.56
	3230	1615.5	-3.39298E-001	-5.16012E-002	0.00000E+000	-3.39800E-001	-1.14021E-004	11	...........	-327.56
	3268	1634.5	-3.77210E-001	-7.29394E-002	0.00000E+000	-3.77800E-001	-1.09521E-004	11	...........	-327.56
	3306	1653.5	-4.15181E-001	-1.24491E-001	0.00000E+000	-4.15800E-001	-1.12088E-004	11	...........	-327.56
	3344	1672.5	-4.52988E-001	-1.84249E-001	0.00000E+000	-4.53800E-001	-1.12388E-004	11	...........	-327.56
	3382	1691.5	-4.90902E-001	-2.49271E-001	0.00000E+000	-4.91800E-001	-9.93881E-005	11	...........	-327.56
	3420	1710.5	-5.29009E-001	-3.20092E-001	0.00000E+000	-5.29800E-001	-1.14721E-004	12	...........	-327.56
	3458	1729.5	-5.67001E-001	-3.98126E-001	0.00000E+000	-5.67800E-001	-1.17721E-004	12	...........	-327.56
	3496	1748.5	-6.04883E-001	-4.80492E-001	0.00000E+000	-6.05800E-001	-1.13788E-004	12	...........	-327.56
	3534	1767.5	-6.42844E-001	-5.69111E-001	0.00000E+000	-6.43800E-001	-1.12988E-004	12	...........	-327.56
	3572	1786.5	-6.80709E-001	-6.63114E-001	0.00000E+000	-6.81800E-001	-1.15455E-004	12	...........	-327.56
	3610	1805.5	-7.18593E-001	-7.57833E-001	0.00000E+000	-7.19800E-001	-1.15088E-004	12	...........	-327.56
	3648	1824.5	-7.56490E-001	-8.57518E-001	0.00000E+000	-7.57800E-001	-1.14488E-004	12	...........	-327.56
	3686	1843.5	-7.94440E-001	-9.58805E-001	0.00000E+000	-7.95800E-001	-1.15988E-004	12	...........	-327.56
	3690	1845.5	-7.98419E-001	-9.68970E-001	0.00000E+000	-7.99800E-001	-1.17388E-004	12	...........	-327.56
CURVE2	TABLE
	Pt	T	Vf	Im	Vu	Sig	Ach	IERange	Over	Temp
	#	s	V vs. Ref.	A	V	V	V	#	bits	deg C
	3691	1846	-7.97638E-001	-9.66199E-001	0.00000E+000	-7.99000E-001	-1.13921E-004	12	...........	-327.56
	3742	1871.5	-7.46780E-001	-8.01953E-001	0.00000E+000	-7.48000E-001	-1.13955E-004	12	...........	-327.56
	3793	1897	-6.95942E-001	-6.49261E-001	0.00000E+000	-6.97000E-001	-1.17121E-004	12	...........	-327.56
	3844	1922.5	-6.45067E-001	-5.05670E-001	0.00000E+000	-6.46000E-001	-1.15421E-004	12	...........	-327.56
	3895	1948	-5.94207E-001	-3.68157E-001	0.00000E+000	-5.95000E-001	-1.16988E-004	12	...........	-327.56
	3946	1973.5	-5.43333E-001	-2.40894E-001	0.00000E+000	-5.44000E-001	-1.12655E-004	12	...........	-327.56
	3997	1999	-4.92330E-001	-1.25604E-001	0.00000E+000	-4.93000E-001	-1.12621E-004	11	...........	-327.56
	4048	2024.5	-4.41295E-001	-2.16977E-002	0.00000E+000	-4.42000E-001	-1.07588E-004	10	...........	-327.56
	4099	2050	-3.90682E-001	6.15139E-002	0.00000E+000	-3.91000E-001	-1.15755E-004	11	...........	-327.56
	4150	2075.5	-3.39830E-001	1.17288E-001	0.00000E+000	-3.40000E-001	-1.14521E-004	11	...........	-327.56
	4201	2101	-2.88930E-001	1.35977E-001	0.00000E+000	-2.89000E-001	-1.11855E-004	11	...........	-327.56
	4252	2126.5	-2.37939E-001	1.27043E-001	0.00000E+000	-2.38000E-001	-1.15621E-004	11	...........	-327.56
	4303	2152	-1.86987E-001	1.26235E-001	0.00000E+000	-1.87000E-001	-1.15721E-004	11	...........	-327.56
	4354	2177.5	-1.36036E-001	1.20445E-001	0.00000E+000	-1.36000E-001	-1.16555E-004	11	...........	-327.56
	4405	2203	-8.51001E-002	1.27786E-001	0.00000E+000	-8.49999E-002	-1.16421E-004	11	...........	-327.56
	4456	2228.5	-3.41501E-002	1.36915E-001	0.00000E+000	-3.40000E-002	-1.16555E-004	11	...........	-327.56
	4507	2254	1.65709E-002	1.67103E-001	0.00000E+000	1.70000E-002	-1.14821E-004	11	...........	-327.56
	4558	2279.5	6.74167E-002	2.32780E-001	0.00000E+000	6.80000E-002	-1.12155E-004	11	...........	-327.56
	4609	2305	1.18541E-001	3.40622E-001	0.00000E+000	1.19000E-001	-1.15388E-004	12	...........	-327.56
	4660	2330.5	1.69484E-001	4.57305E-001	0.00000E+000	1.70000E-001	-1.19321E-004	12	...........	-327.56
	4711	2356	2.20283E-001	5.71091E-001	0.00000E+000	2.21000E-001	-1.15221E-004	12	...........	-327.56
	4762	2381.5	2.71166E-001	6.95932E-001	0.00000E+000	2.72000E-001	-1.15055E-004	12	...........	-327.56
	4813	2407	3.22016E-001	8.13558E-001	0.00000E+000	3.23000E-001	-1.18355E-004	12	...........	-327.56
	4864	2432.5	3.72947E-001	8.94660E-001	0.00000E+000	3.74000E-001	-1.21655E-004	12	...........	-327.56
	4915	2458	4.24033E-001	7.27996E-001	0.00000E+000	4.25000E-001	-1.21288E-004	12	...........	-327.56
	4966	2483.5	4.75120E-001	6.41945E-001	0.00000E+000	4.76000E-001	-1.18321E-004	12	...........	-327.56
	5017	2509	5.25967E-001	6.36943E-001	0.00000E+000	5.27000E-001	-1.23455E-004	12	...........	-327.56
	5068	2534.5	5.76919E-001	6.41150E-001	0.00000E+000	5.78000E-001	-1.20755E-004	12	...........	-327.56
	5119	2560	6.27883E-001	6.34421E-001	0.00000E+000	6.29000E-001	-1.16088E-004	12	...........	-327.56
	5170	2585.5	6.78925E-001	5.21350E-001	0.00000E+000	6.80000E-001	-1.13688E-004	12	...........	-327.56
	5221	2611	7.29957E-001	3.68357E-001	0.00000E+000	7.31000E-001	-1.18955E-004	12	...........	-327.56
	5272	2636.5	7.80999E-001	2.56616E-001	0.00000E+000	7.82000E-001	-1.18521E-004	12	...........	-327.56
	5323	2662	8.31814E-001	2.05765E-001	0.00000E+000	8.33000E-001	-1.10955E-004	11	...........	-327.56
	5374	2687.5	8.82820E-001	1.79096E-001	0.00000E+000	8.84000E-001	-1.12421E-004	11	...........	-327.56
	5425	2713	9.33794E-001	1.60698E-001	0.00000E+000	9.35000E-001	-1.17888E-004	11	...........	-327.56
	5476	2738.5	9.84783E-001	1.47992E-001	0.00000E+000	9.86000E-001	-1.20288E-004	11	...........	-327.56
	5527	2764	1.03575E+000	1.51253E-001	0.00000E+000	1.03700E+000	-1.13288E-004	11	...........	-327.56
	5578	2789.5	1.08668E+000	1.65817E-001	0.00000E+000	1.08800E+000	-1.14355E-004	11	...........	-327.56
	5629	2815	1.13749E+000	2.43397E-001	0.00000E+000	1.13900E+000	-1.11888E-004	11	...........	-327.56
	5680	2840.5	1.18864E+000	3.62549E-001	0.00000E+000	1.19000E+000	-1.18188E-004	12	...........	-327.56
	5731	2866	1.23948E+000	5.29727E-001	0.00000E+000	1.24100E+000	-1.18755E-004	12	...........	-327.56
	5782	2891.5	1.29032E+000	7.41787E-001	0.00000E+000	1.29200E+000	-1.15721E-004	12	...........	-327.56
	5833	2917	1.34111E+000	9.74310E-001	0.00000E+000	1.34300E+000	-1.15088E-004	12	...........	-327.56
	5884	2942.5	1.39196E+000	1.16904E+000	0.00000E+000	1.39400E+000	-1.17821E-004	12	...........	-327.56
[...]
	9029	4515	-4.60382E-001	-9.99591E-002	0.00000E+000	-4.61000E-001	-1.17921E-004	11	...........	-327.56
	9055	4528	-4.34475E-001	-4.50497E-002	0.00000E+000	-4.35000E-001	-1.19221E-004	11	...........	-327.56
	9081	4541	-4.08689E-001	1.00564E-002	0.00000E+000	-4.09000E-001	-1.14921E-004	10	...........	-327.56
	9107	4554	-3.82652E-001	5.47750E-002	0.00000E+000	-3.83000E-001	-1.14955E-004	11	...........	-327.56
	9133	4567	-3.56745E-001	9.66007E-002	0.00000E+000	-3.57000E-001	-1.22988E-004	11	...........	-327.56
	9159	4580	-3.30814E-001	1.29782E-001	0.00000E+000	-3.31000E-001	-1.15221E-004	11	...........	-327.56
	9185	4593	-3.04919E-001	1.57122E-001	0.00000E+000	-3.05000E-001	-1.13355E-004	11	...........	-327.56
	9211	4606	-2.78942E-001	1.69028E-001	0.00000E+000	-2.79000E-001	-1.20788E-004	11	...........	-327.56
	9237	4619	-2.52951E-001	1.72642E-001	0.00000E+000	-2.53000E-001	-1.17055E-004	11	...........	-327.56
	9263	4632	-2.26971E-001	1.68869E-001	0.00000E+000	-2.27000E-001	-1.13788E-004	11	...........	-327.56
	9289	4645	-2.00983E-001	1.60273E-001	0.00000E+000	-2.01000E-001	-1.15455E-004	11	...........	-327.56
	9315	4658	-1.74991E-001	1.55369E-001	0.00000E+000	-1.75000E-001	-1.20888E-004	11	...........	-327.56
	9341	4671	-1.49000E-001	1.54923E-001	0.00000E+000	-1.49000E-001	-1.17155E-004	11	...........	-327.56
	9367	4684	-1.23014E-001	1.57780E-001	0.00000E+000	-1.23000E-001	-1.17288E-004	11	...........	-327.56
	9393	4697	-9.70886E-002	1.63779E-001	0.00000E+000	-9.70000E-002	-1.15688E-004	11	...........	-327.56
	9419	4710	-7.11256E-002	1.72694E-001	0.00000E+000	-7.10000E-002	-1.16855E-004	11	...........	-327.56
	9445	4723	-4.51610E-002	1.81023E-001	0.00000E+000	-4.50000E-002	-1.16288E-004	11	...........	-327.56
	9471	4736	-1.92048E-002	1.89721E-001	0.00000E+000	-1.90000E-002	-1.16955E-004	11	...........	-327.56
	9497	4749	6.56996E-003	2.02464E-001	0.00000E+000	7.00003E-003	-1.17988E-004	11	...........	-327.56
	9523	4762	3.25249E-002	2.20992E-001	0.00000E+000	3.30000E-002	-1.15555E-004	11	...........	-327.56
	9549	4775	5.84573E-002	2.42733E-001	0.00000E+000	5.90000E-002	-1.13355E-004	11	...........	-327.56
	9575	4788	8.47099E-002	2.70572E-001	0.00000E+000	8.50000E-002	-1.18755E-004	12	...........	-327.56
	9601	4801	1.10632E-001	3.10000E-001	0.00000E+000	1.11000E-001	-1.20721E-004	12	...........	-327.56
	9627	4814	1.36586E-001	3.61109E-001	0.00000E+000	1.37000E-001	-1.17655E-004	12	...........	-327.56
	9653	4827	1.62520E-001	4.15398E-001	0.00000E+000	1.63000E-001	-1.23088E-004	12	...........	-327.56
	9679	4840	1.88462E-001	4.71767E-001	0.00000E+000	1.89000E-001	-1.18788E-004	12	...........	-327.56
	9705	4853	2.14390E-001	5.28502E-001	0.00000E+000	2.15000E-001	-1.25421E-004	12	...........	-327.56
	9731	4866	2.40350E-001	5.83170E-001	0.00000E+000	2.41000E-001	-1.21621E-004	12	...........	-327.56
	9757	4879	2.66301E-001	6.41399E-001	0.00000E+000	2.67000E-001	-1.14821E-004	12	...........	-327.56
	9783	4892	2.92233E-001	7.08467E-001	0.00000E+000	2.93000E-001	-1.19321E-004	12	...........	-327.56
	9809	4905	3.18126E-001	7.75097E-001	0.00000E+000	3.19000E-001	-1.17788E-004	12	...........	-327.56
	9835	4918	3.44092E-001	8.20247E-001	0.00000E+000	3.45000E-001	-1.19955E-004	12	...........	-327.56
	9861	4931	3.70050E-001	8.50636E-001	0.00000E+000	3.71000E-001	-1.20555E-004	12	...........	-327.56
	9887	4944	3.96021E-001	8.53926E-001	0.00000E+000	3.97000E-001	-1.21588E-004	12	...........	-327.56
	9913	4957	4.22055E-001	7.70227E-001	0.00000E+000	4.23000E-001	-1.17921E-004	12	...........	-327.56
	9939	4970	4.48070E-001	7.07641E-001	0.00000E+000	4.49000E-001	-1.22955E-004	12	...........	-327.56
	9965	4983	4.73980E-001	6.97870E-001	0.00000E+000	4.75000E-001	-1.20855E-004	12	...........	-327.56
	9991	4996	4.99966E-001	7.00523E-001	0.00000E+000	5.01000E-001	-1.20855E-004	12	...........	-327.56
	10017	5009	5.25926E-001	7.11636E-001	0.00000E+000	5.27000E-001	-1.25255E-004	12	...........	-327.56
	10043	5022	5.51938E-001	7.33503E-001	0.00000E+000	5.53000E-001	-1.20821E-004	12	...........	-327.56
	10069	5035	5.77862E-001	7.58398E-001	0.00000E+000	5.79000E-001	-1.22688E-004	12	...........	-327.56
	10095	5048	6.03848E-001	7.74572E-001	0.00000E+000	6.05000E-001	-1.18855E-004	12	...........	-327.56
	10121	5061	6.29809E-001	7.86064E-001	0.00000E+000	6.31000E-001	-1.18955E-004	12	...........	-327.56
	10147	5074	6.55873E-001	7.94831E-001	0.00000E+000	6.57000E-001	-1.20521E-004	12	...........	-327.56
	10173	5087	6.81778E-001	8.04896E-001	0.00000E+000	6.83000E-001	-1.19188E-004	12	...........	-327.56
	10199	5100	7.07782E-001	7.80141E-001	0.00000E+000	7.09000E-001	-1.20155E-004	12	...........	-327.56
	10225	5113	7.33777E-001	7.21760E-001	0.00000E+000	7.35000E-001	-1.23855E-004	12	...........	-327.56
	10251	5126	7.59875E-001	6.39430E-001	0.00000E+000	7.61000E-001	-1.20155E-004	12	...........	-327.56
	10277	5139	7.85863E-001	5.29260E-001	0.00000E+000	7.87000E-001	-1.22088E-004	12	...........	-327.56
	10303	5152	8.11928E-001	3.99224E-001	0.00000E+000	8.13000E-001	-1.20021E-004	12	...........	-327.56
	10329	5165	8.37926E-001	2.90273E-001	0.00000E+000	8.39000E-001	-1.18588E-004	12	...........	-327.56
	10355	5178	8.63735E-001	2.26439E-001	0.00000E+000	8.65000E-001	-1.17221E-004	11	...........	-327.56
	10381	5191	8.89767E-001	1.96038E-001	0.00000E+000	8.91000E-001	-1.19421E-004	11	...........	-327.56
	10407	5204	9.15766E-001	1.79152E-001	0.00000E+000	9.17000E-001	-1.13455E-004	11	...........	-327.56
	10433	5217	9.41747E-001	1.68556E-001	0.00000E+000	9.43000E-001	-1.22221E-004	11	...........	-327.56
	10459	5230	9.67768E-001	1.61386E-001	0.00000E+000	9.69000E-001	-1.21455E-004	11	...........	-327.56
	10485	5243	9.93562E-001	2.49101E-001	0.00000E+000	9.95000E-001	-1.19355E-004	11	...........	-327.56
	10511	5256	1.01964E+000	1.94031E-001	0.00000E+000	1.02100E+000	-1.18588E-004	11	...........	-327.56
	10537	5269	1.04559E+000	1.99854E-001	0.00000E+000	1.04700E+000	-1.16688E-004	11	...........	-327.56
	10563	5282	1.07157E+000	2.04763E-001	0.00000E+000	1.07300E+000	-1.12488E-004	11	...........	-327.56
	10589	5295	1.09754E+000	2.29847E-001	0.00000E+000	1.09900E+000	-1.21055E-004	11	...........	-327.56
	10615	5308	1.12347E+000	2.62619E-001	0.00000E+000	1.12500E+000	-1.19555E-004	11	...........	-327.56
	10641	5321	1.14966E+000	2.96553E-001	0.00000E+000	1.15100E+000	-1.20155E-004	12	...........	-327.56
	10667	5334	1.17561E+000	3.40304E-001	0.00000E+000	1.17700E+000	-1.22421E-004	12	...........	-327.56
	10693	5347	1.20156E+000	3.90361E-001	0.00000E+000	1.20300E+000	-1.24088E-004	12	...........	-327.56
	10719	5360	1.22753E+000	4.44789E-001	0.00000E+000	1.22900E+000	-1.20055E-004	12	...........	-327.56
	10745	5373	1.25345E+000	5.14317E-001	0.00000E+000	1.25500E+000	-1.20155E-004	12	...........	-327.56
	10771	5386	1.27942E+000	5.71509E-001	0.00000E+000	1.28100E+000	-1.18255E-004	12	...........	-327.56
	10797	5399	1.30535E+000	6.40035E-001	0.00000E+000	1.30700E+000	-1.19321E-004	12	...........	-327.56
	10823	5412	1.33122E+000	7.34706E-001	0.00000E+000	1.33300E+000	-1.22988E-004	12	...........	-327.56
	10849	5425	1.35714E+000	8.38345E-001	0.00000E+000	1.35900E+000	-1.20621E-004	12	...........	-327.56
	10875	5438	1.38311E+000	8.95447E-001	0.00000E+000	1.38500E+000	-1.16221E-004	12	...........	-327.56
	10901	5451	1.40905E+000	9.59995E-001	0.00000E+000	1.41100E+000	-1.19221E-004	12	...........	-327.56
	10927	5464	1.43498E+000	1.05436E+000	0.00000E+000	1.43700E+000	-1.19121E-004	12	...........	-327.56
	10953	5477	1.46093E+000	1.12001E+000	0.00000E+000	1.46300E+000	-1.21055E-004	12	...........	-327.56
	10979	5490	1.48685E+000	1.20575E+000	0.00000E+000	1.48900E+000	-1.18855E-004	12	...........	-327.56
	11005	5503	1.51280E+000	1.29432E+000	0.00000E+000	1.51500E+000	-1.19788E-004	12	...........	-327.56
	11031	5516	1.53871E+000	1.37792E+000	0.00000E+000	1.54100E+000	-1.18955E-004	12	...........	-327.56
	11057	5529	1.56470E+000	1.46591E+000	0.00000E+000	1.56700E+000	-1.21355E-004	12	...........	-327.56
	11083	5542	1.59061E+000	1.56753E+000	0.00000E+000	1.59300E+000	-1.18655E-004	12	...........	-327.56
	11109	5555	1.61658E+000	1.66675E+000	0.00000E+000	1.61900E+000	-1.17588E-004	12	...........	-327.56
	11135	5568	1.64251E+000	1.76128E+000	0.00000E+000	1.64500E+000	-1.20955E-004	12	...........	-327.56
	11161	5581	1.66847E+000	1.83973E+000	0.00000E+000	1.67100E+000	-1.16188E-004	12	...........	-327.56
	11187	5594	1.69445E+000	1.94792E+000	0.00000E+000	1.69700E+000	-1.18788E-004	12	...........	-327.56
	11190	5595.5	1.69747E+000	1.95959E+000	0.00000E+000	1.70000E+000	-1.19388E-004	12	...........	-327.56