File: testing/data/240902_17_MCL13_cswWE_CV20_750C_CO2.DTA
EXPLAIN
TAG	CV
TITLE	LABEL	Cyclic Voltammetry	Test Identifier
DATE	LABEL	9/3/2024	Date
TIME	LABEL	17:13:27	Time
NOTES	NOTES	5	Notes...
	cswWE - carbon steel wire
cspWE - carbon steel plate 2x2 tapered

Carbon steel plate counter electrode
Carbon steel wire reference electrode
PSTAT	PSTAT	REF3000-48128	Potentiostat
VINIT	POTEN	0.00000E+000	T	Initial E (V)
VLIMIT1	POTEN	1.70000E+000	F	Scan Limit 1 (V)
VLIMIT2	POTEN	-1.00000E+000	F	Scan Limit 2 (V)
VFINAL	POTEN	1.70000E+000	F	Final E (V)
SCANRATE	QUANT	2.00000E+001	Scan Rate (mV/s)
STEPSIZE	QUANT	1.00000E+000	Step Size (mV)
CYCLES	IQUANT	6	Cycles (#)
IMODE	SELECTOR	0	I/E Range Mode
IRANGE	QUANT	3.00000E-001	Max Current (mA)
AREA	QUANT	1.00000E+000	Sample Area (cm^2)
EQDELAY	QUANT	0.00000E+000	Equil. Time (s)
IRCOMP	SELECTOR	0	IRComp
PFCOR	QUANT	5.00000E+001	PF Corr. (ohm)
SAMPLINGMODE	SELECTOR	1	Sampling Mode
EOC	QUANT	0.2646424	Open Circuit (V)
ELECTRODETYPE	SELECTOR	0	Electrode Type
STRIPPING	TOGGLE	F	Used for Stripping
SEQUENCER	TOGGLE	TRUE	Run as Sequence
PSTATMODEL	IQUANT	5	Pstat Model
PSTATSECTION	LABEL	REF3000-48128	Pstat Section
PSTATSERIALNO	LABEL	48128	Pstat Serial Number
CTRLMODE	IQUANT	1	Control Mode
ELECTROMETER	IQUANT	0	RE=0 or CS=1
IESTAB	IQUANT	2	I/E Stability
CASPEED	IQUANT	4	Control Amp Speed
CONVENTION	IQUANT	1	Current Convention
ICHRANGE	IQUANT	2	Ich Range
ICHRANGEMODE	TOGGLE	F	Ich Auto Range
ICHOFFSETENABLE	TOGGLE	F	Ich Offset Enable
ICHOFFSET	QUANT	0	Ich Offset (V)
ICHFILTER	IQUANT	2	Ich Filter
VCHRANGE	IQUANT	2	Vch Range
VCHRANGEMODE	TOGGLE	F	Vch Auto Range
VCHOFFSETENABLE	TOGGLE	F	Vch Offset Enable
VCHOFFSET	QUANT	0	Vch Offset (V)
VCHFILTER	IQUANT	2	Vch Filter
ACHRANGE	IQUANT	2	Ach Range
ACHOFFSETENABLE	TOGGLE	F	Ach Offset Enable
ACHOFFSET	QUANT	0	Ach Offset (V)
ACHFILTER	IQUANT	1	Ach Filter
IERANGELOWERLIMIT	IQUANT	2	I/E Range Lower Limit
IERANGEMODE	TOGGLE	T	I/E AutoRange
IERANGE	IQUANT	9	I/E Range
POSFEEDENABLE	TOGGLE	F	Positive Feedback IR Comp
POSFEEDRESISTANCE	QUANT	0	Positive Feedback Resistance (ohm)
ACHSELECT	IQUANT	4	Ach Select
SENSECABLEID	IQUANT	14	Sense Cable ID
PWRCABLEID	IQUANT	7	Power Cable ID
DCCALDATE	LABEL	8/16/2024	DC Calibration Date
ACCALDATE	LABEL	8/16/2024	AC Calibration Date
THERMOSELECT	IQUANT	1	Thermo Select
FRAMEWORKVERSION	LABEL	7.10.3	Framework Version
INSTRUMENTVERSION	LABEL	4.91	Instrument Version
COMMVERSION	LABEL	5.10	Communications Version
CPUPLDVERSION	LABEL	6.00	CPU PLD Version
CTRLPLDVERSION	LABEL	3.21	CTRL PLD Version
PSTATPLDVERSION	LABEL	0.00	PSTAT PLD Version
COMPLIANCEVOLTAGE	IQUANT	0	Compliance Voltage
CURVE1	TABLE
	Pt	T	Vf	Im	Vu	Sig	Ach	IERange	Over	Temp
	#	s	V vs. Ref.	A	V	V	V	#	bits	deg C
	0	0.05	2.64209E-001	9.89234E-004	0.00000E+000	2.64650E-001	-1.05221E-004	9	...........	-327.56
	42	2.15	3.06172E-001	7.43727E-003	0.00000E+000	3.06650E-001	-1.06555E-004	10	...........	-327.56
	84	4.25	3.47942E-001	1.62325E-002	0.00000E+000	3.48650E-001	-1.04888E-004	10	...........	-327.56
	126	6.35	3.89927E-001	2.06953E-002	0.00000E+000	3.90650E-001	-1.14555E-004	10	...........	-327.56
	168	8.45	4.31945E-001	1.63808E-002	0.00000E+000	4.32650E-001	-1.11221E-004	10	...........	-327.56
	210	10.55	4.73901E-001	1.31666E-002	0.00000E+000	4.74650E-001	-1.09221E-004	10	...........	-327.56
	252	12.65	5.15928E-001	1.14115E-002	0.00000E+000	5.16650E-001	-1.04888E-004	10	...........	-327.56
	294	14.75	5.57880E-001	1.01813E-002	0.00000E+000	5.58650E-001	-1.13888E-004	10	...........	-327.56
	336	16.85	5.99931E-001	9.25064E-003	0.00000E+000	6.00650E-001	-1.15555E-004	10	...........	-327.56
	378	18.95	6.41882E-001	8.61936E-003	0.00000E+000	6.42650E-001	-1.03221E-004	10	...........	-327.56
	420	21.05	6.83801E-001	8.20477E-003	0.00000E+000	6.84650E-001	-1.02555E-004	10	...........	-327.56
	462	23.15	7.25811E-001	8.14822E-003	0.00000E+000	7.26650E-001	-1.15555E-004	10	...........	-327.56
	504	25.25	7.67766E-001	8.21042E-003	0.00000E+000	7.68650E-001	-1.13221E-004	10	...........	-327.56
	546	27.35	8.09642E-001	8.48065E-003	0.00000E+000	8.10650E-001	-1.20221E-004	10	...........	-327.56
	588	29.45	8.51675E-001	8.92877E-003	0.00000E+000	8.52650E-001	-1.27221E-004	10	...........	-327.56
	630	31.55	8.93597E-001	9.42982E-003	0.00000E+000	8.94650E-001	-1.16888E-004	10	...........	-327.56
	672	33.65	9.35465E-001	1.01621E-002	0.00000E+000	9.36650E-001	-1.25888E-004	10	...........	-327.56
	714	35.75	9.77527E-001	1.12722E-002	0.00000E+000	9.78650E-001	-1.26888E-004	10	...........	-327.56
	756	37.85	1.01944E+000	1.30334E-002	0.00000E+000	1.02065E+000	-1.29555E-004	10	...........	-327.56
	798	39.95	1.06142E+000	1.57364E-002	0.00000E+000	1.06265E+000	-1.19555E-004	10	...........	-327.56
	840	42.05	1.10331E+000	1.95908E-002	0.00000E+000	1.10465E+000	-1.30221E-004	10	...........	-327.56
	882	44.15	1.14514E+000	2.51165E-002	0.00000E+000	1.14665E+000	-1.16555E-004	10	...........	-327.56
	924	46.25	1.18743E+000	3.45742E-002	0.00000E+000	1.18865E+000	-1.19555E-004	11	...........	-327.56
	966	48.35	1.22936E+000	5.00788E-002	0.00000E+000	1.23065E+000	-1.27221E-004	11	...........	-327.56
	1008	50.45	1.27125E+000	7.16890E-002	0.00000E+000	1.27265E+000	-1.10555E-004	11	...........	-327.56
	1050	52.55	1.31324E+000	1.00047E-001	0.00000E+000	1.31465E+000	-1.18221E-004	11	...........	-327.56
	1092	54.65	1.35512E+000	1.32166E-001	0.00000E+000	1.35665E+000	-1.16221E-004	11	...........	-327.56
	1134	56.75	1.39695E+000	1.68175E-001	0.00000E+000	1.39865E+000	-1.20888E-004	11	...........	-327.56
	1176	58.85	1.43891E+000	2.13849E-001	0.00000E+000	1.44065E+000	-1.18555E-004	11	...........	-327.56
	1218	60.95	1.48076E+000	2.64618E-001	0.00000E+000	1.48265E+000	-1.06221E-004	11	...........	-327.56
	1260	63.05	1.52304E+000	3.13025E-001	0.00000E+000	1.52465E+000	-1.19555E-004	12	...........	-327.56
	1302	65.15	1.56493E+000	3.62343E-001	0.00000E+000	1.56665E+000	-1.29555E-004	12	...........	-327.56
	1344	67.25	1.60681E+000	4.12647E-001	0.00000E+000	1.60865E+000	-1.12888E-004	12	...........	-327.56
	1386	69.35	1.64877E+000	4.74316E-001	0.00000E+000	1.65065E+000	-1.25221E-004	12	...........	-327.56
	1428	71.45	1.69070E+000	5.27141E-001	0.00000E+000	1.69265E+000	-1.21888E-004	12	...........	-327.56
	1470	73.55	1.66271E+000	5.08321E-001	0.00000E+000	1.66465E+000	-1.19888E-004	12	...........	-327.56
	1512	75.65	1.62083E+000	4.57660E-001	0.00000E+000	1.62265E+000	-1.25888E-004	12	...........	-327.56
	1554	77.75	1.57884E+000	4.11492E-001	0.00000E+000	1.58065E+000	-1.27555E-004	12	...........	-327.56
	1596	79.85	1.53692E+000	3.64773E-001	0.00000E+000	1.53865E+000	-1.24555E-004	12	...........	-327.56
	1638	81.95	1.49504E+000	3.14238E-001	0.00000E+000	1.49665E+000	-1.16221E-004	12	...........	-327.56
	1680	84.05	1.45306E+000	2.65851E-001	0.00000E+000	1.45465E+000	-1.23888E-004	12	...........	-327.56
	1722	86.15	1.41094E+000	2.18706E-001	0.00000E+000	1.41265E+000	-1.19221E-004	11	...........	-327.56
	1764	88.25	1.36903E+000	1.74784E-001	0.00000E+000	1.37065E+000	-1.11555E-004	11	...........	-327.56
	1806	90.35	1.32713E+000	1.33007E-001	0.00000E+000	1.32865E+000	-1.24221E-004	11	...........	-327.56
	1848	92.45	1.28526E+000	9.55343E-002	0.00000E+000	1.28665E+000	-1.20888E-004	11	...........	-327.56
	1890	94.55	1.24328E+000	6.19735E-002	0.00000E+000	1.24465E+000	-1.32221E-004	11	...........	-327.56
	1932	96.65	1.20140E+000	3.73483E-002	0.00000E+000	1.20265E+000	-1.23555E-004	11	...........	-327.56
	1974	98.75	1.15921E+000	2.19006E-002	0.00000E+000	1.16065E+000	-1.18888E-004	10	...........	-327.56
	2016	100.85	1.11733E+000	1.43333E-002	0.00000E+000	1.11865E+000	-1.12888E-004	10	...........	-327.56
	2058	102.95	1.07541E+000	1.13821E-002	0.00000E+000	1.07665E+000	-1.22888E-004	10	...........	-327.56
	2100	105.05	1.03351E+000	1.05804E-002	0.00000E+000	1.03465E+000	-1.17555E-004	10	...........	-327.56
	2142	107.15	9.91472E-001	1.03583E-002	0.00000E+000	9.92650E-001	-1.25221E-004	10	...........	-327.56
	2184	109.25	9.49544E-001	1.01954E-002	0.00000E+000	9.50650E-001	-1.11555E-004	10	...........	-327.56
	2226	111.35	9.07648E-001	1.00018E-002	0.00000E+000	9.08650E-001	-1.18221E-004	10	...........	-327.56
	2268	113.45	8.65622E-001	9.81596E-003	0.00000E+000	8.66650E-001	-1.19221E-004	10	...........	-327.56
	2310	115.55	8.23679E-001	9.34476E-003	0.00000E+000	8.24650E-001	-1.26221E-004	10	...........	-327.56
	2352	117.65	7.81646E-001	8.77028E-003	0.00000E+000	7.82650E-001	-1.26221E-004	10	...........	-327.56
	2394	119.75	7.39767E-001	7.74750E-003	0.00000E+000	7.40650E-001	-1.20888E-004	10	...........	-327.56
	2436	121.85	6.97893E-001	6.54603E-003	0.00000E+000	6.98650E-001	-1.26888E-004	10	...........	-327.56
	2478	123.95	6.55917E-001	5.34415E-003	0.00000E+000	6.56650E-001	-1.21221E-004	10	...........	-327.56
	2520	126.05	6.13938E-001	4.19799E-003	0.00000E+000	6.14650E-001	-1.25555E-004	10	...........	-327.56
	2562	128.15	5.72016E-001	2.87171E-003	0.00000E+000	5.72650E-001	-1.21555E-004	10	...........	-327.56
	2604	130.25	5.29848E-001	1.30330E-003	0.00000E+000	5.30650E-001	-1.17888E-004	9	...........	-327.56
	2646	132.35	4.88217E-001	-7.27159E-004	0.00000E+000	4.88650E-001	-1.15221E-004	9	...........	-327.56
	2688	134.45	4.46242E-001	-3.10324E-003	0.00000E+000	4.46650E-001	-1.22888E-004	10	...........	-327.56
	2730	136.55	4.04224E-001	-5.70540E-003	0.00000E+000	4.04650E-001	-1.30555E-004	10	...........	-327.56
	2772	138.65	3.62325E-001	-8.45839E-003	0.00000E+000	3.62650E-001	-1.20221E-004	10	...........	-327.56
	2814	140.75	3.20310E-001	-1.13330E-002	0.00000E+000	3.20650E-001	-1.20221E-004	10	...........	-327.56
	2856	142.85	2.78458E-001	-1.35271E-002	0.00000E+000	2.78650E-001	-1.27221E-004	10	...........	-327.56
	2898	144.95	2.36530E-001	-1.31103E-002	0.00000E+000	2.36650E-001	-1.20555E-004	10	...........	-327.56
	2940	147.05	1.94441E-001	-1.16972E-002	0.00000E+000	1.94650E-001	-1.22221E-004	10	...........	-327.56
	2982	149.15	1.52518E-001	-1.11393E-002	0.00000E+000	1.52650E-001	-1.18221E-004	10	...........	-327.56
	3024	151.25	1.10590E-001	-1.11688E-002	0.00000E+000	1.10650E-001	-1.26888E-004	10	...........	-327.56
	3066	153.35	6.86751E-002	-1.14419E-002	0.00000E+000	6.86500E-002	-1.23555E-004	10	...........	-327.56
	3108	155.45	2.66674E-002	-1.18531E-002	0.00000E+000	2.66500E-002	-1.18555E-004	10	...........	-327.56
	3150	157.55	-1.50764E-002	-1.23950E-002	0.00000E+000	-1.53500E-002	-1.15555E-004	10	...........	-327.56
	3192	159.65	-5.70824E-002	-1.33022E-002	0.00000E+000	-5.73500E-002	-1.17221E-004	10	...........	-327.56
	3234	161.75	-9.89997E-002	-1.43961E-002	0.00000E+000	-9.93500E-002	-1.17555E-004	10	...........	-327.56
	3276	163.85	-1.40939E-001	-1.44260E-002	0.00000E+000	-1.41350E-001	-1.14221E-004	10	...........	-327.56
	3318	165.95	-1.82947E-001	-1.46143E-002	0.00000E+000	-1.83350E-001	-1.26221E-004	10	...........	-327.56
	3360	168.05	-2.24854E-001	-1.57451E-002	0.00000E+000	-2.25350E-001	-1.10555E-004	10	...........	-327.56
	3402	170.15	-2.66872E-001	-1.76062E-002	0.00000E+000	-2.67350E-001	-1.11221E-004	10	...........	-327.56
	3444	172.25	-3.08732E-001	-1.99328E-002	0.00000E+000	-3.09350E-001	-1.25888E-004	10	...........	-327.56
	3486	174.35	-3.50622E-001	-2.29083E-002	0.00000E+000	-3.51350E-001	-1.15888E-004	10	...........	-327.56
	3528	176.45	-3.92942E-001	-2.82389E-002	0.00000E+000	-3.93350E-001	-1.25221E-004	11	...........	-327.56
	3570	178.55	-4.34856E-001	-3.97772E-002	0.00000E+000	-4.35350E-001	-1.16888E-004	11	...........	-327.56
	3612	180.65	-4.76764E-001	-5.69935E-002	0.00000E+000	-4.77350E-001	-1.31221E-004	11	...........	-327.56
	3654	182.75	-5.18720E-001	-8.10796E-002	0.00000E+000	-5.19350E-001	-1.20221E-004	11	...........	-327.56
	3696	184.85	-5.60586E-001	-1.13499E-001	0.00000E+000	-5.61350E-001	-1.27888E-004	11	...........	-327.56
	3738	186.95	-6.02477E-001	-1.68011E-001	0.00000E+000	-6.03350E-001	-1.17888E-004	11	...........	-327.56
	3780	189.05	-6.44354E-001	-2.35142E-001	0.00000E+000	-6.45350E-001	-1.26221E-004	11	...........	-327.56
	3822	191.15	-6.86497E-001	-2.89139E-001	0.00000E+000	-6.87350E-001	-1.11555E-004	12	...........	-327.56
	3864	193.25	-7.28531E-001	-3.03479E-001	0.00000E+000	-7.29350E-001	-1.23888E-004	12	...........	-327.56
	3906	195.35	-7.70470E-001	-2.88853E-001	0.00000E+000	-7.71350E-001	-1.21221E-004	12	...........	-327.56
	3948	197.45	-8.12383E-001	-3.04147E-001	0.00000E+000	-8.13350E-001	-1.21888E-004	12	...........	-327.56
	3990	199.55	-8.54391E-001	-3.60249E-001	0.00000E+000	-8.55350E-001	-1.21888E-004	12	...........	-327.56
	4032	201.65	-8.96279E-001	-3.78461E-001	0.00000E+000	-8.97350E-001	-1.13888E-004	12	...........	-327.56
	4074	203.75	-9.38215E-001	-3.34258E-001	0.00000E+000	-9.39350E-001	-1.18888E-004	12	...........	-327.56
	4116	205.85	-9.80279E-001	-2.75935E-001	0.00000E+000	-9.81350E-001	-1.18888E-004	12	...........	-327.56
	4135	206.8	-9.99242E-001	-3.05347E-001	0.00000E+000	-1.00035E+000	-1.16555E-004	12	...........	-327.56
CURVE2	TABLE
	Pt	T	Vf	Im	Vu	Sig	Ach	IERange	Over	Temp
	#	s	V vs. Ref.	A	V	V	V	#	bits	deg C
	4136	206.85	-9.97877E-001	-3.03445E-001	0.00000E+000	-9.99000E-001	-1.16221E-004	12	...........	-327.56
	4192	209.65	-9.41686E-001	-2.22226E-001	0.00000E+000	-9.43000E-001	-1.15221E-004	11	...........	-327.56
	4248	212.45	-8.85869E-001	-1.52849E-001	0.00000E+000	-8.87000E-001	-1.21555E-004	11	...........	-327.56
	4304	215.25	-8.30075E-001	-9.48583E-002	0.00000E+000	-8.31000E-001	-1.25555E-004	11	...........	-327.56
	4360	218.05	-7.74186E-001	-5.11609E-002	0.00000E+000	-7.75000E-001	-1.21555E-004	11	...........	-327.56
	4416	220.85	-7.18252E-001	-2.93793E-002	0.00000E+000	-7.19000E-001	-1.23555E-004	11	...........	-327.56
	4472	223.65	-6.62219E-001	-9.06288E-003	0.00000E+000	-6.63000E-001	-1.20555E-004	10	...........	-327.56
	4528	226.45	-6.06459E-001	4.38533E-002	0.00000E+000	-6.07000E-001	-1.22221E-004	11	...........	-327.56
	4584	229.25	-5.50612E-001	1.15545E-001	0.00000E+000	-5.51000E-001	-1.20555E-004	11	...........	-327.56
	4640	232.05	-4.94867E-001	1.82997E-001	0.00000E+000	-4.95000E-001	-1.20888E-004	11	...........	-327.56
	4696	234.85	-4.38818E-001	1.29450E-001	0.00000E+000	-4.39000E-001	-1.17888E-004	11	...........	-327.56
	4752	237.65	-3.82852E-001	1.67142E-001	0.00000E+000	-3.83000E-001	-1.29888E-004	11	...........	-327.56
	4808	240.45	-3.26978E-001	2.31017E-001	0.00000E+000	-3.27000E-001	-1.15555E-004	11	...........	-327.56
	4864	243.25	-2.70847E-001	1.02807E-001	0.00000E+000	-2.71000E-001	-1.23555E-004	11	...........	-327.56
	4920	246.05	-2.14839E-001	3.11099E-002	0.00000E+000	-2.15000E-001	-1.22888E-004	11	...........	-327.56
	4976	248.85	-1.59081E-001	2.21807E-002	0.00000E+000	-1.59000E-001	-1.21555E-004	10	...........	-327.56
	5032	251.65	-1.03154E-001	2.47385E-002	0.00000E+000	-1.03000E-001	-1.24221E-004	10	...........	-327.56
	5088	254.45	-4.69463E-002	3.20730E-002	0.00000E+000	-4.70000E-002	-1.22888E-004	11	...........	-327.56
	5144	257.25	8.80118E-003	4.48864E-002	0.00000E+000	9.00003E-003	-1.16555E-004	11	...........	-327.56
	5200	260.05	6.46318E-002	7.54401E-002	0.00000E+000	6.50000E-002	-1.19221E-004	11	...........	-327.56
	5256	262.85	1.20543E-001	1.13848E-001	0.00000E+000	1.21000E-001	-1.21221E-004	11	...........	-327.56
	5312	265.65	1.76452E-001	1.51590E-001	0.00000E+000	1.77000E-001	-1.24888E-004	11	...........	-327.56
	5368	268.45	2.32393E-001	1.80194E-001	0.00000E+000	2.33000E-001	-1.29555E-004	11	...........	-327.56
	5424	271.25	2.88351E-001	1.88606E-001	0.00000E+000	2.89000E-001	-1.26221E-004	11	...........	-327.56
	5480	274.05	3.44339E-001	1.52867E-001	0.00000E+000	3.45000E-001	-1.22555E-004	11	...........	-327.56
	5536	276.85	4.00241E-001	1.44594E-001	0.00000E+000	4.01000E-001	-1.28221E-004	11	...........	-327.56
	5592	279.65	4.56223E-001	1.53157E-001	0.00000E+000	4.57000E-001	-1.18888E-004	11	...........	-327.56
	5648	282.45	5.12160E-001	1.58676E-001	0.00000E+000	5.13000E-001	-1.13888E-004	11	...........	-327.56
	5704	285.25	5.68139E-001	1.64187E-001	0.00000E+000	5.69000E-001	-1.26221E-004	11	...........	-327.56
	5760	288.05	6.24086E-001	1.67182E-001	0.00000E+000	6.25000E-001	-1.14888E-004	11	...........	-327.56
	5816	290.85	6.79954E-001	1.61744E-001	0.00000E+000	6.81000E-001	-1.18888E-004	11	...........	-327.56
	5872	293.65	7.35983E-001	1.33679E-001	0.00000E+000	7.37000E-001	-1.25888E-004	11	...........	-327.56
	5928	296.45	7.92010E-001	9.28614E-002	0.00000E+000	7.93000E-001	-1.06221E-004	11	...........	-327.56
	5984	299.25	8.48047E-001	5.89049E-002	0.00000E+000	8.49000E-001	-1.26221E-004	11	...........	-327.56
	6040	302.05	9.04035E-001	4.33832E-002	0.00000E+000	9.05000E-001	-1.24221E-004	11	...........	-327.56
	6096	304.85	9.59959E-001	3.57891E-002	0.00000E+000	9.61000E-001	-1.15555E-004	11	...........	-327.56
	6152	307.65	1.01593E+000	3.20492E-002	0.00000E+000	1.01700E+000	-1.30888E-004	11	...........	-327.56
	6208	310.45	1.07190E+000	3.30591E-002	0.00000E+000	1.07300E+000	-1.18888E-004	11	...........	-327.56
	6264	313.25	1.12783E+000	4.29763E-002	0.00000E+000	1.12900E+000	-1.23555E-004	11	...........	-327.56
	6320	316.05	1.18372E+000	6.31521E-002	0.00000E+000	1.18500E+000	-1.25888E-004	11	...........	-327.56
	6376	318.85	1.23964E+000	9.69381E-002	0.00000E+000	1.24100E+000	-1.14221E-004	11	...........	-327.56
	6432	321.65	1.29545E+000	1.39647E-001	0.00000E+000	1.29700E+000	-1.18555E-004	11	...........	-327.56
[...]
	31484	1574.25	-6.50406E-001	-2.64987E-003	0.00000E+000	-6.51000E-001	-1.21888E-004	10	...........	-327.56
	31513	1575.7	-6.21695E-001	2.24523E-002	0.00000E+000	-6.22000E-001	-1.11888E-004	10	...........	-327.56
	31542	1577.15	-5.92529E-001	5.30588E-002	0.00000E+000	-5.93000E-001	-1.10221E-004	11	...........	-327.56
	31571	1578.6	-5.63588E-001	8.31421E-002	0.00000E+000	-5.64000E-001	-1.26555E-004	11	...........	-327.56
	31600	1580.05	-5.34618E-001	1.13965E-001	0.00000E+000	-5.35000E-001	-1.25888E-004	11	...........	-327.56
	31629	1581.5	-5.05705E-001	1.34922E-001	0.00000E+000	-5.06000E-001	-1.22221E-004	11	...........	-327.56
	31658	1582.95	-4.76725E-001	1.40092E-001	0.00000E+000	-4.77000E-001	-1.15221E-004	11	...........	-327.56
	31687	1584.4	-4.47837E-001	1.45800E-001	0.00000E+000	-4.48000E-001	-1.07221E-004	11	...........	-327.56
	31716	1585.85	-4.18861E-001	1.47936E-001	0.00000E+000	-4.19000E-001	-1.24888E-004	11	...........	-327.56
	31745	1587.3	-3.89868E-001	1.53010E-001	0.00000E+000	-3.90000E-001	-1.27888E-004	11	...........	-327.56
	31774	1588.75	-3.60905E-001	1.64930E-001	0.00000E+000	-3.61000E-001	-1.10888E-004	11	...........	-327.56
	31803	1590.2	-3.31876E-001	1.56675E-001	0.00000E+000	-3.32000E-001	-1.17555E-004	11	...........	-327.56
	31832	1591.65	-3.02931E-001	1.61416E-001	0.00000E+000	-3.03000E-001	-1.11555E-004	11	...........	-327.56
	31861	1593.1	-2.73948E-001	1.71863E-001	0.00000E+000	-2.74000E-001	-1.18888E-004	11	...........	-327.56
	31890	1594.55	-2.44943E-001	1.58291E-001	0.00000E+000	-2.45000E-001	-1.10221E-004	11	...........	-327.56
	31919	1596	-2.15938E-001	7.60003E-002	0.00000E+000	-2.16000E-001	-1.28888E-004	11	...........	-327.56
	31948	1597.45	-1.86889E-001	5.46373E-002	0.00000E+000	-1.87000E-001	-1.22555E-004	11	...........	-327.56
	31977	1598.9	-1.57869E-001	4.64764E-002	0.00000E+000	-1.58000E-001	-1.23555E-004	11	...........	-327.56
	32006	1600.35	-1.28898E-001	4.17708E-002	0.00000E+000	-1.29000E-001	-1.17555E-004	11	...........	-327.56
	32035	1601.8	-9.99095E-002	3.83451E-002	0.00000E+000	-1.00000E-001	-1.14888E-004	11	...........	-327.56
	32064	1603.25	-7.09138E-002	3.61703E-002	0.00000E+000	-7.10000E-002	-1.12221E-004	11	...........	-327.56
	32093	1604.7	-4.19387E-002	3.54087E-002	0.00000E+000	-4.20000E-002	-1.24221E-004	11	...........	-327.56
	32122	1606.15	-1.29550E-002	3.84017E-002	0.00000E+000	-1.30000E-002	-1.23555E-004	11	...........	-327.56
	32151	1607.6	1.57947E-002	4.54204E-002	0.00000E+000	1.60000E-002	-1.20221E-004	11	...........	-327.56
	32180	1609.05	4.47435E-002	5.24566E-002	0.00000E+000	4.50000E-002	-1.22888E-004	11	...........	-327.56
	32209	1610.5	7.37095E-002	6.17800E-002	0.00000E+000	7.40000E-002	-1.24555E-004	11	...........	-327.56
	32238	1611.95	1.02643E-001	7.42519E-002	0.00000E+000	1.03000E-001	-1.21555E-004	11	...........	-327.56
	32267	1613.4	1.31615E-001	8.79830E-002	0.00000E+000	1.32000E-001	-1.17555E-004	11	...........	-327.56
	32296	1614.85	1.60592E-001	1.00718E-001	0.00000E+000	1.61000E-001	-1.18221E-004	11	...........	-327.56
	32325	1616.3	1.89551E-001	1.12278E-001	0.00000E+000	1.90000E-001	-1.15555E-004	11	...........	-327.56
	32354	1617.75	2.18403E-001	1.20389E-001	0.00000E+000	2.19000E-001	-1.19221E-004	11	...........	-327.56
	32383	1619.2	2.47421E-001	1.22544E-001	0.00000E+000	2.48000E-001	-1.28888E-004	11	...........	-327.56
	32412	1620.65	2.76411E-001	1.16703E-001	0.00000E+000	2.77000E-001	-1.22888E-004	11	...........	-327.56
	32441	1622.1	3.05481E-001	1.10220E-001	0.00000E+000	3.06000E-001	-1.21888E-004	11	...........	-327.56
	32470	1623.55	3.34436E-001	8.94116E-002	0.00000E+000	3.35000E-001	-1.27555E-004	11	...........	-327.56
	32499	1625	3.63438E-001	7.95074E-002	0.00000E+000	3.64000E-001	-1.19555E-004	11	...........	-327.56
	32528	1626.45	3.92429E-001	7.53651E-002	0.00000E+000	3.93000E-001	-1.19555E-004	11	...........	-327.56
	32557	1627.9	4.21433E-001	7.34487E-002	0.00000E+000	4.22000E-001	-1.17555E-004	11	...........	-327.56
	32586	1629.35	4.50314E-001	6.94623E-002	0.00000E+000	4.51000E-001	-1.17555E-004	11	...........	-327.56
	32615	1630.8	4.79345E-001	6.69522E-002	0.00000E+000	4.80000E-001	-1.24888E-004	11	...........	-327.56
	32644	1632.25	5.08332E-001	6.38032E-002	0.00000E+000	5.09000E-001	-1.23221E-004	11	...........	-327.56
	32673	1633.7	5.37287E-001	6.14071E-002	0.00000E+000	5.38000E-001	-1.19221E-004	11	...........	-327.56
	32702	1635.15	5.66322E-001	5.84035E-002	0.00000E+000	5.67000E-001	-1.26888E-004	11	...........	-327.56
	32731	1636.6	5.95309E-001	5.47655E-002	0.00000E+000	5.96000E-001	-1.19555E-004	11	...........	-327.56
	32760	1638.05	6.24290E-001	5.16250E-002	0.00000E+000	6.25000E-001	-1.21221E-004	11	...........	-327.56
	32789	1639.5	6.53162E-001	4.78932E-002	0.00000E+000	6.54000E-001	-1.17221E-004	11	...........	-327.56
	32818	1640.95	6.82188E-001	4.25243E-002	0.00000E+000	6.83000E-001	-1.25888E-004	11	...........	-327.56
	32847	1642.4	7.11175E-001	3.43573E-002	0.00000E+000	7.12000E-001	-1.23221E-004	11	...........	-327.56
	32876	1643.85	7.40167E-001	2.52415E-002	0.00000E+000	7.41000E-001	-1.23221E-004	11	...........	-327.56
	32905	1645.3	7.68970E-001	1.86034E-002	0.00000E+000	7.70000E-001	-1.20888E-004	10	...........	-327.56
	32934	1646.75	7.98013E-001	1.50800E-002	0.00000E+000	7.99000E-001	-1.17555E-004	10	...........	-327.56
	32963	1648.2	8.26985E-001	1.36008E-002	0.00000E+000	8.28000E-001	-1.20888E-004	10	...........	-327.56
	32992	1649.65	8.55981E-001	1.29370E-002	0.00000E+000	8.57000E-001	-1.21555E-004	10	...........	-327.56
	33021	1651.1	8.84864E-001	1.28964E-002	0.00000E+000	8.86000E-001	-1.24888E-004	10	...........	-327.56
	33050	1652.55	9.13887E-001	1.28464E-002	0.00000E+000	9.15000E-001	-1.16555E-004	10	...........	-327.56
	33079	1654	9.42812E-001	1.30098E-002	0.00000E+000	9.44000E-001	-1.14555E-004	10	...........	-327.56
	33108	1655.45	9.71825E-001	1.33996E-002	0.00000E+000	9.73000E-001	-1.17888E-004	10	...........	-327.56
	33137	1656.9	1.00081E+000	1.39909E-002	0.00000E+000	1.00200E+000	-1.19888E-004	10	...........	-327.56
	33166	1658.35	1.02979E+000	1.51898E-002	0.00000E+000	1.03100E+000	-1.11888E-004	10	...........	-327.56
	33195	1659.8	1.05872E+000	1.72837E-002	0.00000E+000	1.06000E+000	-1.23888E-004	10	...........	-327.56
	33224	1661.25	1.08767E+000	2.07120E-002	0.00000E+000	1.08900E+000	-1.21221E-004	10	...........	-327.56
	33253	1662.7	1.11656E+000	2.58427E-002	0.00000E+000	1.11800E+000	-1.17888E-004	10	...........	-327.56
	33282	1664.15	1.14576E+000	3.31060E-002	0.00000E+000	1.14700E+000	-1.27221E-004	11	...........	-327.56
	33311	1665.6	1.17472E+000	4.27218E-002	0.00000E+000	1.17600E+000	-1.12888E-004	11	...........	-327.56
	33340	1667.05	1.20368E+000	5.38223E-002	0.00000E+000	1.20500E+000	-1.25221E-004	11	...........	-327.56
	33369	1668.5	1.23269E+000	6.70514E-002	0.00000E+000	1.23400E+000	-1.25221E-004	11	...........	-327.56
	33398	1669.95	1.26164E+000	8.17778E-002	0.00000E+000	1.26300E+000	-1.14221E-004	11	...........	-327.56
	33427	1671.4	1.29061E+000	9.89698E-002	0.00000E+000	1.29200E+000	-1.21555E-004	11	...........	-327.56
	33456	1672.85	1.31946E+000	1.17657E-001	0.00000E+000	1.32100E+000	-1.19555E-004	11	...........	-327.56
	33485	1674.3	1.34841E+000	1.36456E-001	0.00000E+000	1.35000E+000	-1.23555E-004	11	...........	-327.56
	33514	1675.75	1.37742E+000	1.57364E-001	0.00000E+000	1.37900E+000	-1.23888E-004	11	...........	-327.56
	33543	1677.2	1.40633E+000	1.78736E-001	0.00000E+000	1.40800E+000	-1.27888E-004	11	...........	-327.56
	33572	1678.65	1.43526E+000	2.04015E-001	0.00000E+000	1.43700E+000	-1.17555E-004	11	...........	-327.56
	33601	1680.1	1.46423E+000	2.28341E-001	0.00000E+000	1.46600E+000	-1.25221E-004	11	...........	-327.56
	33630	1681.55	1.49317E+000	2.52853E-001	0.00000E+000	1.49500E+000	-1.18555E-004	11	...........	-327.56
	33659	1683	1.52241E+000	2.77866E-001	0.00000E+000	1.52400E+000	-1.10221E-004	12	...........	-327.56
	33688	1684.45	1.55122E+000	3.01243E-001	0.00000E+000	1.55300E+000	-1.12555E-004	12	...........	-327.56
	33717	1685.9	1.58023E+000	3.23508E-001	0.00000E+000	1.58200E+000	-1.24888E-004	12	...........	-327.56
	33746	1687.35	1.60922E+000	3.45688E-001	0.00000E+000	1.61100E+000	-1.27221E-004	12	...........	-327.56
	33775	1688.8	1.63822E+000	3.76231E-001	0.00000E+000	1.64000E+000	-1.27888E-004	12	...........	-327.56
	33804	1690.25	1.66719E+000	4.00057E-001	0.00000E+000	1.66900E+000	-1.21221E-004	12	...........	-327.56
	33833	1691.7	1.69610E+000	4.86385E-001	0.00000E+000	1.69800E+000	-1.34221E-004	12	...........	-327.56
	33835	1691.8	1.69810E+000	4.77073E-001	0.00000E+000	1.70000E+000	-1.25555E-004	12	...........	-327.56