File: testing/data/240902_18_MCL13_cswWE_CV50_750C_CO2.DTA
EXPLAIN
TAG	CV
TITLE	LABEL	Cyclic Voltammetry	Test Identifier
DATE	LABEL	9/3/2024	Date
TIME	LABEL	17:42:40	Time
NOTES	NOTES	5	Notes...
	cswWE - carbon steel wire
cspWE - carbon steel plate 2x2 tapered

Carbon steel plate counter electrode
Carbon steel wire reference electrode
PSTAT	PSTAT	REF3000-48128	Potentiostat
VINIT	POTEN	0.00000E+000	T	Initial E (V)
VLIMIT1	POTEN	1.70000E+000	F	Scan Limit 1 (V)
VLIMIT2	POTEN	-1.00000E+000	F	Scan Limit 2 (V)
VFINAL	POTEN	1.70000E+000	F	Final E (V)
SCANRATE	QUANT	4.99999E+001	Scan Rate (mV/s)
STEPSIZE	QUANT	1.00000E+000	Step Size (mV)
CYCLES	IQUANT	6	Cycles (#)
IMODE	SELECTOR	0	I/E Range Mode
IRANGE	QUANT	3.00000E-001	Max Current (mA)
AREA	QUANT	1.00000E+000	Sample Area (cm^2)
EQDELAY	QUANT	0.00000E+000	Equil. Time (s)
IRCOMP	SELECTOR	0	IRComp
PFCOR	QUANT	5.00000E+001	PF Corr. (ohm)
SAMPLINGMODE	SELECTOR	1	Sampling Mode
EOC	QUANT	0.1485671	Open Circuit (V)
ELECTRODETYPE	SELECTOR	0	Electrode Type
STRIPPING	TOGGLE	F	Used for Stripping
SEQUENCER	TOGGLE	TRUE	Run as Sequence
PSTATMODEL	IQUANT	5	Pstat Model
PSTATSECTION	LABEL	REF3000-48128	Pstat Section
PSTATSERIALNO	LABEL	48128	Pstat Serial Number
CTRLMODE	IQUANT	1	Control Mode
ELECTROMETER	IQUANT	0	RE=0 or CS=1
IESTAB	IQUANT	2	I/E Stability
CASPEED	IQUANT	4	Control Amp Speed
CONVENTION	IQUANT	1	Current Convention
ICHRANGE	IQUANT	2	Ich Range
ICHRANGEMODE	TOGGLE	F	Ich Auto Range
ICHOFFSETENABLE	TOGGLE	F	Ich Offset Enable
ICHOFFSET	QUANT	0	Ich Offset (V)
ICHFILTER	IQUANT	2	Ich Filter
VCHRANGE	IQUANT	2	Vch Range
VCHRANGEMODE	TOGGLE	F	Vch Auto Range
VCHOFFSETENABLE	TOGGLE	F	Vch Offset Enable
VCHOFFSET	QUANT	0	Vch Offset (V)
VCHFILTER	IQUANT	2	Vch Filter
ACHRANGE	IQUANT	2	Ach Range
ACHOFFSETENABLE	TOGGLE	F	Ach Offset Enable
ACHOFFSET	QUANT	0	Ach Offset (V)
ACHFILTER	IQUANT	1	Ach Filter
IERANGELOWERLIMIT	IQUANT	2	I/E Range Lower Limit
IERANGEMODE	TOGGLE	T	I/E AutoRange
IERANGE	IQUANT	9	I/E Range
POSFEEDENABLE	TOGGLE	F	Positive Feedback IR Comp
POSFEEDRESISTANCE	QUANT	0	Positive Feedback Resistance (ohm)
ACHSELECT	IQUANT	4	Ach Select
SENSECABLEID	IQUANT	14	Sense Cable ID
PWRCABLEID	IQUANT	7	Power Cable ID
DCCALDATE	LABEL	8/16/2024	DC Calibration Date
ACCALDATE	LABEL	8/16/2024	AC Calibration Date
THERMOSELECT	IQUANT	1	Thermo Select
FRAMEWORKVERSION	LABEL	7.10.3	Framework Version
INSTRUMENTVERSION	LABEL	4.91	Instrument Version
COMMVERSION	LABEL	5.10	Communications Version
CPUPLDVERSION	LABEL	6.00	CPU PLD Version
CTRLPLDVERSION	LABEL	3.21	CTRL PLD Version
PSTATPLDVERSION	LABEL	0.00	PSTAT PLD Version
COMPLIANCEVOLTAGE	IQUANT	0	Compliance Voltage
CURVE1	TABLE
	Pt	T	Vf	Im	Vu	Sig	Ach	IERange	Over	Temp
	#	s	V vs. Ref.	A	V	V	V	#	bits	deg C
	0	0.02	1.48254E-001	1.18777E-004	0.00000E+000	1.48550E-001	-9.62214E-005	9	...........	-327.56
	44	0.9	1.91987E-001	2.30332E-003	0.00000E+000	1.92550E-001	-1.09555E-004	9	...........	-327.56
	88	1.78	2.36177E-001	5.89499E-003	0.00000E+000	2.36550E-001	-1.11221E-004	10	...........	-327.56
	132	2.66	2.80023E-001	1.18126E-002	0.00000E+000	2.80550E-001	-8.87214E-005	10	...........	-327.56
	176	3.54	3.23825E-001	1.88101E-002	0.00000E+000	3.24550E-001	-1.07055E-004	10	...........	-327.56
	220	4.42	3.68056E-001	2.78294E-002	0.00000E+000	3.68550E-001	-9.78881E-005	11	...........	-327.56
	264	5.3	4.12016E-001	3.37672E-002	0.00000E+000	4.12550E-001	-1.10388E-004	11	...........	-327.56
	308	6.18	4.55977E-001	2.93435E-002	0.00000E+000	4.56550E-001	-9.37214E-005	11	...........	-327.56
	352	7.06	4.99896E-001	2.52065E-002	0.00000E+000	5.00550E-001	-8.37214E-005	11	...........	-327.56
	396	7.94	5.43692E-001	2.29567E-002	0.00000E+000	5.44550E-001	-7.12214E-005	10	...........	-327.56
	440	8.82	5.87619E-001	2.14356E-002	0.00000E+000	5.88550E-001	-9.12214E-005	10	...........	-327.56
	484	9.7	6.31598E-001	1.96806E-002	0.00000E+000	6.32550E-001	-1.03721E-004	10	...........	-327.56
	528	10.58	6.75661E-001	1.82520E-002	0.00000E+000	6.76550E-001	-9.37214E-005	10	...........	-327.56
	572	11.46	7.19561E-001	1.69800E-002	0.00000E+000	7.20550E-001	-1.06221E-004	10	...........	-327.56
	616	12.34	7.63538E-001	1.54780E-002	0.00000E+000	7.64550E-001	-1.02055E-004	10	...........	-327.56
	660	13.22	8.07491E-001	1.36554E-002	0.00000E+000	8.08550E-001	-1.13721E-004	10	...........	-327.56
	704	14.1	8.51555E-001	1.14070E-002	0.00000E+000	8.52550E-001	-9.70548E-005	10	...........	-327.56
	748	14.98	8.95493E-001	9.78443E-003	0.00000E+000	8.96550E-001	-1.03721E-004	10	...........	-327.56
	792	15.86	9.39425E-001	9.20628E-003	0.00000E+000	9.40550E-001	-1.02888E-004	10	...........	-327.56
	836	16.74	9.83442E-001	9.36709E-003	0.00000E+000	9.84550E-001	-7.28881E-005	10	...........	-327.56
	880	17.62	1.02739E+000	1.03482E-002	0.00000E+000	1.02855E+000	-1.11221E-004	10	...........	-327.56
	924	18.5	1.07130E+000	1.28743E-002	0.00000E+000	1.07255E+000	-1.12055E-004	10	...........	-327.56
	968	19.38	1.11515E+000	1.78774E-002	0.00000E+000	1.11655E+000	-1.03721E-004	10	...........	-327.56
	1012	20.26	1.15936E+000	2.75976E-002	0.00000E+000	1.16055E+000	-1.06221E-004	11	...........	-327.56
	1056	21.14	1.20325E+000	4.29497E-002	0.00000E+000	1.20455E+000	-1.09555E-004	11	...........	-327.56
	1100	22.02	1.24717E+000	6.38312E-002	0.00000E+000	1.24855E+000	-1.07055E-004	11	...........	-327.56
	1144	22.9	1.29118E+000	8.87602E-002	0.00000E+000	1.29255E+000	-1.09555E-004	11	...........	-327.56
	1188	23.78	1.33505E+000	1.16865E-001	0.00000E+000	1.33655E+000	-9.70548E-005	11	...........	-327.56
	1232	24.66	1.37898E+000	1.49133E-001	0.00000E+000	1.38055E+000	-1.21221E-004	11	...........	-327.56
	1276	25.54	1.42282E+000	1.82318E-001	0.00000E+000	1.42455E+000	-1.13721E-004	11	...........	-327.56
	1320	26.42	1.46679E+000	2.20158E-001	0.00000E+000	1.46855E+000	-1.13721E-004	11	...........	-327.56
	1364	27.3	1.51068E+000	2.58306E-001	0.00000E+000	1.51255E+000	-1.07888E-004	11	...........	-327.56
	1408	28.18	1.55482E+000	2.99975E-001	0.00000E+000	1.55655E+000	-1.14555E-004	12	...........	-327.56
	1452	29.06	1.59883E+000	3.38731E-001	0.00000E+000	1.60055E+000	-1.18721E-004	12	...........	-327.56
	1496	29.94	1.64276E+000	3.76043E-001	0.00000E+000	1.64455E+000	-1.07055E-004	12	...........	-327.56
	1540	30.82	1.68667E+000	4.24349E-001	0.00000E+000	1.68855E+000	-1.18721E-004	12	...........	-327.56
	1584	31.7	1.66468E+000	4.05413E-001	0.00000E+000	1.66655E+000	-1.17888E-004	12	...........	-327.56
	1628	32.58	1.62080E+000	3.58383E-001	0.00000E+000	1.62255E+000	-1.17888E-004	12	...........	-327.56
	1672	33.46	1.57675E+000	3.20506E-001	0.00000E+000	1.57855E+000	-1.05388E-004	12	...........	-327.56
	1716	34.34	1.53292E+000	2.77945E-001	0.00000E+000	1.53455E+000	-1.16221E-004	12	...........	-327.56
	1760	35.22	1.48899E+000	2.42034E-001	0.00000E+000	1.49055E+000	-1.27055E-004	12	...........	-327.56
	1804	36.1	1.44483E+000	2.06527E-001	0.00000E+000	1.44655E+000	-1.20388E-004	11	...........	-327.56
	1848	36.98	1.40084E+000	1.73564E-001	0.00000E+000	1.40255E+000	-1.26221E-004	11	...........	-327.56
	1892	37.86	1.35697E+000	1.40504E-001	0.00000E+000	1.35855E+000	-1.02888E-004	11	...........	-327.56
	1936	38.74	1.31311E+000	1.10716E-001	0.00000E+000	1.31455E+000	-1.20388E-004	11	...........	-327.56
	1980	39.62	1.26909E+000	8.40954E-002	0.00000E+000	1.27055E+000	-1.06221E-004	11	...........	-327.56
	2024	40.5	1.22520E+000	6.08816E-002	0.00000E+000	1.22655E+000	-1.16221E-004	11	...........	-327.56
	2068	41.38	1.18132E+000	4.26748E-002	0.00000E+000	1.18255E+000	-1.14555E-004	11	...........	-327.56
	2112	42.26	1.13739E+000	3.01910E-002	0.00000E+000	1.13855E+000	-1.15388E-004	11	...........	-327.56
	2156	43.14	1.09313E+000	2.27507E-002	0.00000E+000	1.09455E+000	-1.16221E-004	10	...........	-327.56
	2200	44.02	1.04921E+000	1.90938E-002	0.00000E+000	1.05055E+000	-1.16221E-004	10	...........	-327.56
	2244	44.9	1.00534E+000	1.70183E-002	0.00000E+000	1.00655E+000	-9.87214E-005	10	...........	-327.56
	2288	45.78	9.61393E-001	1.44676E-002	0.00000E+000	9.62550E-001	-1.17888E-004	10	...........	-327.56
	2332	46.66	9.17460E-001	1.20124E-002	0.00000E+000	9.18550E-001	-1.22055E-004	10	...........	-327.56
	2376	47.54	8.73554E-001	9.40546E-003	0.00000E+000	8.74550E-001	-1.08721E-004	10	...........	-327.56
	2420	48.42	8.29605E-001	7.21571E-003	0.00000E+000	8.30550E-001	-1.12888E-004	10	...........	-327.56
	2464	49.3	7.85624E-001	5.88319E-003	0.00000E+000	7.86550E-001	-1.02055E-004	10	...........	-327.56
	2508	50.18	7.41697E-001	4.90518E-003	0.00000E+000	7.42550E-001	-1.03721E-004	10	...........	-327.56
	2552	51.06	6.97814E-001	4.08181E-003	0.00000E+000	6.98550E-001	-1.07888E-004	10	...........	-327.56
	2596	51.94	6.53755E-001	3.29858E-003	0.00000E+000	6.54550E-001	-1.17888E-004	10	...........	-327.56
	2640	52.82	6.09864E-001	2.44368E-003	0.00000E+000	6.10550E-001	-1.07055E-004	10	...........	-327.56
	2684	53.7	5.65765E-001	1.39469E-003	0.00000E+000	5.66550E-001	-1.26221E-004	9	...........	-327.56
	2728	54.58	5.21811E-001	1.20399E-004	0.00000E+000	5.22550E-001	-1.27055E-004	8	...........	-327.56
	2772	55.46	4.78176E-001	-1.11678E-003	0.00000E+000	4.78550E-001	-1.11221E-004	9	...........	-327.56
	2816	56.34	4.34324E-001	-2.47182E-003	0.00000E+000	4.34550E-001	-1.17055E-004	9	...........	-327.56
	2860	57.22	3.90149E-001	-3.69802E-003	0.00000E+000	3.90550E-001	-9.78881E-005	10	...........	-327.56
	2904	58.1	3.46117E-001	-4.95539E-003	0.00000E+000	3.46550E-001	-1.09555E-004	10	...........	-327.56
	2948	58.98	3.02295E-001	-6.66244E-003	0.00000E+000	3.02550E-001	-9.87214E-005	10	...........	-327.56
	2992	59.86	2.58332E-001	-7.89969E-003	0.00000E+000	2.58550E-001	-1.17055E-004	10	...........	-327.56
	3036	60.74	2.14349E-001	-7.37365E-003	0.00000E+000	2.14550E-001	-1.09555E-004	10	...........	-327.56
	3080	61.62	1.70332E-001	-7.51697E-003	0.00000E+000	1.70550E-001	-1.05388E-004	10	...........	-327.56
	3124	62.5	1.26394E-001	-7.86285E-003	0.00000E+000	1.26550E-001	-1.11221E-004	10	...........	-327.56
	3168	63.38	8.25016E-002	-8.15737E-003	0.00000E+000	8.25500E-002	-1.00388E-004	10	...........	-327.56
	3212	64.26	3.84787E-002	-8.04626E-003	0.00000E+000	3.85500E-002	-1.17888E-004	10	...........	-327.56
	3256	65.14	-5.29714E-003	-7.64207E-003	0.00000E+000	-5.44998E-003	-1.31221E-004	10	...........	-327.56
	3300	66.02	-4.92180E-002	-7.90602E-003	0.00000E+000	-4.94500E-002	-1.12055E-004	10	...........	-327.56
	3344	66.9	-9.31834E-002	-9.14306E-003	0.00000E+000	-9.34500E-002	-1.10388E-004	10	...........	-327.56
	3388	67.78	-1.37133E-001	-1.15623E-002	0.00000E+000	-1.37450E-001	-1.02888E-004	10	...........	-327.56
	3432	68.66	-1.81029E-001	-1.50652E-002	0.00000E+000	-1.81450E-001	-1.10388E-004	10	...........	-327.56
	3476	69.54	-2.24895E-001	-1.84484E-002	0.00000E+000	-2.25450E-001	-1.01221E-004	10	...........	-327.56
	3520	70.42	-2.68837E-001	-2.23215E-002	0.00000E+000	-2.69450E-001	-9.62214E-005	10	...........	-327.56
	3564	71.3	-3.12767E-001	-2.66970E-002	0.00000E+000	-3.13450E-001	-1.04555E-004	10	...........	-327.56
	3608	72.18	-3.56970E-001	-3.15220E-002	0.00000E+000	-3.57450E-001	-1.25388E-004	11	...........	-327.56
	3652	73.06	-4.00942E-001	-3.61849E-002	0.00000E+000	-4.01450E-001	-1.10388E-004	11	...........	-327.56
	3696	73.94	-4.44922E-001	-4.07547E-002	0.00000E+000	-4.45450E-001	-1.09555E-004	11	...........	-327.56
	3740	74.82	-4.88924E-001	-4.78246E-002	0.00000E+000	-4.89450E-001	-1.22055E-004	11	...........	-327.56
	3784	75.7	-5.32785E-001	-6.48007E-002	0.00000E+000	-5.33450E-001	-1.19555E-004	11	...........	-327.56
	3828	76.58	-5.76712E-001	-9.14741E-002	0.00000E+000	-5.77450E-001	-1.12055E-004	11	...........	-327.56
	3872	77.46	-6.20630E-001	-1.40599E-001	0.00000E+000	-6.21450E-001	-1.32888E-004	11	...........	-327.56
	3916	78.34	-6.64500E-001	-1.93877E-001	0.00000E+000	-6.65450E-001	-1.07888E-004	11	...........	-327.56
	3960	79.22	-7.08381E-001	-2.27959E-001	0.00000E+000	-7.09450E-001	-1.22055E-004	11	...........	-327.56
	4004	80.1	-7.52453E-001	-2.06176E-001	0.00000E+000	-7.53450E-001	-9.53881E-005	11	...........	-327.56
	4048	80.98	-7.96336E-001	-2.30462E-001	0.00000E+000	-7.97450E-001	-1.10388E-004	11	...........	-327.56
	4092	81.86	-8.40456E-001	-2.78346E-001	0.00000E+000	-8.41450E-001	-1.07055E-004	12	...........	-327.56
	4136	82.74	-8.84400E-001	-3.21600E-001	0.00000E+000	-8.85450E-001	-1.24555E-004	12	...........	-327.56
	4180	83.62	-9.28376E-001	-3.56505E-001	0.00000E+000	-9.29450E-001	-1.06221E-004	12	...........	-327.56
	4224	84.5	-9.72280E-001	-3.85405E-001	0.00000E+000	-9.73450E-001	-1.03721E-004	12	...........	-327.56
	4251	85.04	-9.99274E-001	-4.00875E-001	0.00000E+000	-1.00045E+000	-1.16221E-004	12	...........	-327.56
CURVE2	TABLE
	Pt	T	Vf	Im	Vu	Sig	Ach	IERange	Over	Temp
	#	s	V vs. Ref.	A	V	V	V	#	bits	deg C
	4252	85.06	-9.97805E-001	-3.98699E-001	0.00000E+000	-9.99000E-001	-1.18721E-004	12	...........	-327.56
	4308	86.18	-9.41875E-001	-3.17172E-001	0.00000E+000	-9.43000E-001	-1.06221E-004	12	...........	-327.56
	4364	87.3	-8.85982E-001	-2.43056E-001	0.00000E+000	-8.87000E-001	-1.12055E-004	12	...........	-327.56
	4420	88.42	-8.29940E-001	-1.80403E-001	0.00000E+000	-8.31000E-001	-1.19555E-004	11	...........	-327.56
	4476	89.54	-7.74086E-001	-1.27531E-001	0.00000E+000	-7.75000E-001	-1.22055E-004	11	...........	-327.56
	4532	90.66	-7.18162E-001	-7.86110E-002	0.00000E+000	-7.19000E-001	-1.10388E-004	11	...........	-327.56
	4588	91.78	-6.62301E-001	-2.75852E-002	0.00000E+000	-6.63000E-001	-9.53881E-005	11	...........	-327.56
	4644	92.9	-6.06444E-001	3.10495E-002	0.00000E+000	-6.07000E-001	-1.08721E-004	11	...........	-327.56
	4700	94.02	-5.50580E-001	8.96694E-002	0.00000E+000	-5.51000E-001	-1.07055E-004	11	...........	-327.56
	4756	95.14	-4.94808E-001	1.44038E-001	0.00000E+000	-4.95000E-001	-1.03721E-004	11	...........	-327.56
	4812	96.26	-4.38866E-001	1.57324E-001	0.00000E+000	-4.39000E-001	-1.22055E-004	11	...........	-327.56
	4868	97.38	-3.82810E-001	1.39757E-001	0.00000E+000	-3.83000E-001	-1.02055E-004	11	...........	-327.56
	4924	98.5	-3.26936E-001	1.98009E-001	0.00000E+000	-3.27000E-001	-1.02888E-004	11	...........	-327.56
	4980	99.62	-2.71021E-001	2.03963E-001	0.00000E+000	-2.71000E-001	-1.02055E-004	11	...........	-327.56
	5036	100.74	-2.15053E-001	1.72168E-001	0.00000E+000	-2.15000E-001	-1.04555E-004	11	...........	-327.56
	5092	101.86	-1.59064E-001	1.57744E-001	0.00000E+000	-1.59000E-001	-1.03721E-004	11	...........	-327.56
	5148	102.98	-1.03019E-001	1.22017E-001	0.00000E+000	-1.03000E-001	-1.08721E-004	11	...........	-327.56
	5204	104.1	-4.70720E-002	1.14393E-001	0.00000E+000	-4.70000E-002	-9.37214E-005	11	...........	-327.56
	5260	105.22	8.68801E-003	1.19815E-001	0.00000E+000	9.00003E-003	-1.04555E-004	11	...........	-327.56
	5316	106.34	6.45688E-002	1.19623E-001	0.00000E+000	6.50000E-002	-1.26221E-004	11	...........	-327.56
	5372	107.46	1.20528E-001	1.20313E-001	0.00000E+000	1.21000E-001	-1.18721E-004	11	...........	-327.56
	5428	108.58	1.76505E-001	1.24195E-001	0.00000E+000	1.77000E-001	-1.17888E-004	11	...........	-327.56
	5484	109.7	2.32441E-001	1.44404E-001	0.00000E+000	2.33000E-001	-1.07888E-004	11	...........	-327.56
	5540	110.82	2.88395E-001	1.58461E-001	0.00000E+000	2.89000E-001	-1.17055E-004	11	...........	-327.56
	5596	111.94	3.44344E-001	1.62204E-001	0.00000E+000	3.45000E-001	-1.22055E-004	11	...........	-327.56
	5652	113.06	4.00208E-001	1.71985E-001	0.00000E+000	4.01000E-001	-1.15388E-004	11	...........	-327.56
	5708	114.18	4.56190E-001	1.79200E-001	0.00000E+000	4.57000E-001	-1.12055E-004	11	...........	-327.56
	5764	115.3	5.12150E-001	1.62462E-001	0.00000E+000	5.13000E-001	-1.27888E-004	11	...........	-327.56
	5820	116.42	5.68141E-001	1.52358E-001	0.00000E+000	5.69000E-001	-1.10388E-004	11	...........	-327.56
	5876	117.54	6.24144E-001	1.39446E-001	0.00000E+000	6.25000E-001	-1.22055E-004	11	...........	-327.56
	5932	118.66	6.80023E-001	1.20284E-001	0.00000E+000	6.81000E-001	-1.21221E-004	11	...........	-327.56
	5988	119.78	7.36040E-001	9.38662E-002	0.00000E+000	7.37000E-001	-1.12888E-004	11	...........	-327.56
	6044	120.9	7.92064E-001	5.97124E-002	0.00000E+000	7.93000E-001	-1.17055E-004	11	...........	-327.56
	6100	122.02	8.48083E-001	3.50839E-002	0.00000E+000	8.49000E-001	-1.23721E-004	11	...........	-327.56
	6156	123.14	9.04060E-001	2.59832E-002	0.00000E+000	9.05000E-001	-1.17055E-004	11	...........	-327.56
	6212	124.26	9.59737E-001	2.35505E-002	0.00000E+000	9.61000E-001	-1.02055E-004	10	...........	-327.56
	6268	125.38	1.01564E+000	2.32787E-002	0.00000E+000	1.01700E+000	-1.07888E-004	10	...........	-327.56
	6324	126.5	1.07157E+000	2.50532E-002	0.00000E+000	1.07300E+000	-1.16221E-004	10	...........	-327.56
	6380	127.62	1.12784E+000	3.07644E-002	0.00000E+000	1.12900E+000	-1.08721E-004	11	...........	-327.56
	6436	128.74	1.18377E+000	4.24897E-002	0.00000E+000	1.18500E+000	-9.95548E-005	11	...........	-327.56
	6492	129.86	1.23970E+000	6.24080E-002	0.00000E+000	1.24100E+000	-1.07888E-004	11	...........	-327.56
	6548	130.98	1.29554E+000	8.95889E-002	0.00000E+000	1.29700E+000	-1.06221E-004	11	...........	-327.56
	6604	132.1	1.35144E+000	1.22443E-001	0.00000E+000	1.35300E+000	-1.17888E-004	11	...........	-327.56
	6660	133.22	1.40736E+000	1.60882E-001	0.00000E+000	1.40900E+000	-1.04555E-004	11	...........	-327.56
	6716	134.34	1.46326E+000	2.01872E-001	0.00000E+000	1.46500E+000	-1.14555E-004	11	...........	-327.56
[...]
	31672	633.46	-5.78482E-001	4.14251E-002	0.00000E+000	-5.79000E-001	-1.06221E-004	11	...........	-327.56
	31700	634.02	-5.50514E-001	6.28505E-002	0.00000E+000	-5.51000E-001	-9.20548E-005	11	...........	-327.56
	31728	634.58	-5.22656E-001	8.48498E-002	0.00000E+000	-5.23000E-001	-1.20388E-004	11	...........	-327.56
	31756	635.14	-4.94740E-001	1.05801E-001	0.00000E+000	-4.95000E-001	-1.04555E-004	11	...........	-327.56
	31784	635.7	-4.66785E-001	1.25098E-001	0.00000E+000	-4.67000E-001	-1.22055E-004	11	...........	-327.56
	31812	636.26	-4.38820E-001	1.38348E-001	0.00000E+000	-4.39000E-001	-1.16221E-004	11	...........	-327.56
	31840	636.82	-4.10814E-001	1.35777E-001	0.00000E+000	-4.11000E-001	-1.15388E-004	11	...........	-327.56
	31868	637.38	-3.82757E-001	1.08777E-001	0.00000E+000	-3.83000E-001	-1.12055E-004	11	...........	-327.56
	31896	637.94	-3.54777E-001	1.12433E-001	0.00000E+000	-3.55000E-001	-1.01221E-004	11	...........	-327.56
	31924	638.5	-3.26807E-001	1.27963E-001	0.00000E+000	-3.27000E-001	-1.09555E-004	11	...........	-327.56
	31952	639.06	-2.98865E-001	1.32610E-001	0.00000E+000	-2.99000E-001	-1.14555E-004	11	...........	-327.56
	31980	639.62	-2.70751E-001	5.50377E-002	0.00000E+000	-2.71000E-001	-1.15388E-004	11	...........	-327.56
	32008	640.18	-2.42898E-001	6.59824E-002	0.00000E+000	-2.43000E-001	-9.95548E-005	11	...........	-327.56
	32036	640.74	-2.14906E-001	7.99201E-002	0.00000E+000	-2.15000E-001	-1.18721E-004	11	...........	-327.56
	32064	641.3	-1.86937E-001	8.45829E-002	0.00000E+000	-1.87000E-001	-1.25388E-004	11	...........	-327.56
	32092	641.86	-1.58912E-001	7.19866E-002	0.00000E+000	-1.59000E-001	-1.12888E-004	11	...........	-327.56
	32120	642.42	-1.30906E-001	5.30129E-002	0.00000E+000	-1.31000E-001	-1.20388E-004	11	...........	-327.56
	32148	642.98	-1.02895E-001	4.34803E-002	0.00000E+000	-1.03000E-001	-1.19555E-004	11	...........	-327.56
	32176	643.54	-7.49270E-002	3.97069E-002	0.00000E+000	-7.50000E-002	-1.12055E-004	11	...........	-327.56
	32204	644.1	-4.69437E-002	3.86295E-002	0.00000E+000	-4.70000E-002	-1.13721E-004	11	...........	-327.56
	32232	644.66	-1.89353E-002	3.73820E-002	0.00000E+000	-1.90000E-002	-1.20388E-004	11	...........	-327.56
	32260	645.22	8.82343E-003	3.54333E-002	0.00000E+000	9.00003E-003	-1.29555E-004	11	...........	-327.56
	32288	645.78	3.68172E-002	3.33038E-002	0.00000E+000	3.70000E-002	-1.09555E-004	11	...........	-327.56
	32316	646.34	6.47126E-002	3.07783E-002	0.00000E+000	6.50000E-002	-1.11221E-004	11	...........	-327.56
	32344	646.9	9.27355E-002	2.94651E-002	0.00000E+000	9.30000E-002	-1.09555E-004	11	...........	-327.56
	32372	647.46	1.20676E-001	3.12067E-002	0.00000E+000	1.21000E-001	-1.19555E-004	11	...........	-327.56
	32400	648.02	1.48710E-001	3.47794E-002	0.00000E+000	1.49000E-001	-1.21221E-004	11	...........	-327.56
	32428	648.58	1.76619E-001	3.93448E-002	0.00000E+000	1.77000E-001	-9.78881E-005	11	...........	-327.56
	32456	649.14	2.04653E-001	4.43351E-002	0.00000E+000	2.05000E-001	-1.25388E-004	11	...........	-327.56
	32484	649.7	2.32598E-001	4.75242E-002	0.00000E+000	2.33000E-001	-1.13721E-004	11	...........	-327.56
	32512	650.26	2.60628E-001	4.12098E-002	0.00000E+000	2.61000E-001	-1.04555E-004	11	...........	-327.56
	32540	650.82	2.88624E-001	3.38755E-002	0.00000E+000	2.89000E-001	-1.17055E-004	11	...........	-327.56
	32568	651.38	3.16581E-001	3.34874E-002	0.00000E+000	3.17000E-001	-1.16221E-004	11	...........	-327.56
	32596	651.94	3.44554E-001	3.32451E-002	0.00000E+000	3.45000E-001	-1.02888E-004	11	...........	-327.56
	32624	652.5	3.72431E-001	3.36463E-002	0.00000E+000	3.73000E-001	-1.32888E-004	11	...........	-327.56
	32652	653.06	4.00415E-001	3.44493E-002	0.00000E+000	4.01000E-001	-1.03721E-004	11	...........	-327.56
	32680	653.62	4.28437E-001	3.24962E-002	0.00000E+000	4.29000E-001	-1.16221E-004	11	...........	-327.56
	32708	654.18	4.56428E-001	3.14105E-002	0.00000E+000	4.57000E-001	-1.01221E-004	11	...........	-327.56
	32736	654.74	4.84415E-001	3.06493E-002	0.00000E+000	4.85000E-001	-1.12888E-004	11	...........	-327.56
	32764	655.3	5.12367E-001	3.02764E-002	0.00000E+000	5.13000E-001	-1.25388E-004	11	...........	-327.56
	32792	655.86	5.40368E-001	2.88543E-002	0.00000E+000	5.41000E-001	-1.27055E-004	11	...........	-327.56
	32820	656.42	5.68370E-001	2.68931E-002	0.00000E+000	5.69000E-001	-1.17055E-004	11	...........	-327.56
	32848	656.98	5.96361E-001	2.49760E-002	0.00000E+000	5.97000E-001	-1.12888E-004	11	...........	-327.56
	32876	657.54	6.24057E-001	2.31727E-002	0.00000E+000	6.25000E-001	-9.70548E-005	10	...........	-327.56
	32904	658.1	6.52076E-001	2.10625E-002	0.00000E+000	6.53000E-001	-1.23721E-004	10	...........	-327.56
	32932	658.66	6.79997E-001	1.90682E-002	0.00000E+000	6.81000E-001	-1.19555E-004	10	...........	-327.56
	32960	659.22	7.08017E-001	1.77224E-002	0.00000E+000	7.09000E-001	-1.14555E-004	10	...........	-327.56
	32988	659.78	7.35982E-001	1.60113E-002	0.00000E+000	7.37000E-001	-1.19555E-004	10	...........	-327.56
	33016	660.34	7.63983E-001	1.46093E-002	0.00000E+000	7.65000E-001	-1.10388E-004	10	...........	-327.56
	33044	660.9	7.91998E-001	1.29712E-002	0.00000E+000	7.93000E-001	-1.18721E-004	10	...........	-327.56
	33072	661.46	8.19988E-001	1.14584E-002	0.00000E+000	8.21000E-001	-1.14555E-004	10	...........	-327.56
	33100	662.02	8.48026E-001	1.05982E-002	0.00000E+000	8.49000E-001	-1.13721E-004	10	...........	-327.56
	33128	662.58	8.75982E-001	1.00650E-002	0.00000E+000	8.77000E-001	-1.01221E-004	10	...........	-327.56
	33156	663.14	9.03972E-001	1.00423E-002	0.00000E+000	9.05000E-001	-1.15388E-004	10	...........	-327.56
	33184	663.7	9.31937E-001	1.00724E-002	0.00000E+000	9.33000E-001	-1.10388E-004	10	...........	-327.56
	33212	664.26	9.59902E-001	1.01293E-002	0.00000E+000	9.61000E-001	-9.78881E-005	10	...........	-327.56
	33240	664.82	9.87801E-001	9.91522E-003	0.00000E+000	9.89000E-001	-1.11221E-004	10	...........	-327.56
	33268	665.38	1.01589E+000	1.03583E-002	0.00000E+000	1.01700E+000	-1.07055E-004	10	...........	-327.56
	33296	665.94	1.04377E+000	1.05343E-002	0.00000E+000	1.04500E+000	-1.12888E-004	10	...........	-327.56
	33324	666.5	1.07179E+000	1.09175E-002	0.00000E+000	1.07300E+000	-1.17055E-004	10	...........	-327.56
	33352	667.06	1.09975E+000	1.16699E-002	0.00000E+000	1.10100E+000	-1.17055E-004	10	...........	-327.56
	33380	667.62	1.12768E+000	1.29080E-002	0.00000E+000	1.12900E+000	-1.07888E-004	10	...........	-327.56
	33408	668.18	1.15566E+000	1.46845E-002	0.00000E+000	1.15700E+000	-9.62214E-005	10	...........	-327.56
	33436	668.74	1.18360E+000	1.74740E-002	0.00000E+000	1.18500E+000	-9.70548E-005	10	...........	-327.56
	33464	669.3	1.21155E+000	2.12276E-002	0.00000E+000	1.21300E+000	-1.07888E-004	10	...........	-327.56
	33492	669.86	1.23975E+000	2.71229E-002	0.00000E+000	1.24100E+000	-1.21221E-004	11	...........	-327.56
	33520	670.42	1.26764E+000	3.51861E-002	0.00000E+000	1.26900E+000	-1.17055E-004	11	...........	-327.56
	33548	670.98	1.29562E+000	4.49030E-002	0.00000E+000	1.29700E+000	-1.06221E-004	11	...........	-327.56
	33576	671.54	1.32361E+000	5.62180E-002	0.00000E+000	1.32500E+000	-1.28721E-004	11	...........	-327.56
	33604	672.1	1.35152E+000	6.78816E-002	0.00000E+000	1.35300E+000	-1.15388E-004	11	...........	-327.56
	33632	672.66	1.37951E+000	8.05610E-002	0.00000E+000	1.38100E+000	-1.05388E-004	11	...........	-327.56
	33660	673.22	1.40745E+000	9.40890E-002	0.00000E+000	1.40900E+000	-1.06221E-004	11	...........	-327.56
	33688	673.78	1.43543E+000	1.08037E-001	0.00000E+000	1.43700E+000	-1.09555E-004	11	...........	-327.56
	33716	674.34	1.46341E+000	1.22479E-001	0.00000E+000	1.46500E+000	-1.19555E-004	11	...........	-327.56
	33744	674.9	1.49135E+000	1.36799E-001	0.00000E+000	1.49300E+000	-1.10388E-004	11	...........	-327.56
	33772	675.46	1.51932E+000	1.52458E-001	0.00000E+000	1.52100E+000	-1.17888E-004	11	...........	-327.56
	33800	676.02	1.54725E+000	1.66910E-001	0.00000E+000	1.54900E+000	-1.03721E-004	11	...........	-327.56
	33828	676.58	1.57507E+000	1.81658E-001	0.00000E+000	1.57700E+000	-1.09555E-004	11	...........	-327.56
	33856	677.14	1.60312E+000	1.95780E-001	0.00000E+000	1.60500E+000	-1.07888E-004	11	...........	-327.56
	33884	677.7	1.63109E+000	2.09678E-001	0.00000E+000	1.63300E+000	-1.15388E-004	11	...........	-327.56
	33912	678.26	1.65907E+000	2.23661E-001	0.00000E+000	1.66100E+000	-1.22888E-004	11	...........	-327.56
	33940	678.82	1.68696E+000	2.40450E-001	0.00000E+000	1.68900E+000	-1.01221E-004	11	...........	-327.56
	33951	679.04	1.69800E+000	2.46052E-001	0.00000E+000	1.70000E+000	-1.01221E-004	11	...........	-327.56