File: testing/data/240902_01d_MCL13_cswWE_CV20_initial_test.DTA
EXPLAIN
TAG	CV
TITLE	LABEL	Cyclic Voltammetry	Test &Identifier
DATE	LABEL	9/2/2024	Date
TIME	LABEL	15:58:31	Time
NOTES	NOTES	5	&Notes...

	WE: Ag wire
	RE: Ni/NiO
	CE: steel swirl
PSTAT	PSTAT	REF3000-48128	Potentiostat
VINIT	POTEN	0.00000E+000	T	Initial &E (V)
VLIMIT1	POTEN	1.70000E+000	F	Scan Limit &1 (V)
VLIMIT2	POTEN	0.00000E+000	F	Scan Limit &2 (V)
VFINAL	POTEN	0.00000E+000	T	Final &E (V)
SCANRATE	QUANT	2.00000E+001	&Scan Rate (mV/s)
STEPSIZE	QUANT	1.00000E+000	St&ep Size (mV)
CYCLES	IQUANT	0	C&ycles (#)
IMODE	SELECTOR	0	I/E Range &Mode
IRANGE	QUANT	5.00000E+001	&Max Current (mA)
AREA	QUANT	1.00000E+000	Electrode &Area (cm^2)
ELECTRODETYPE	SELECTOR	1	Electrode Type
STRIPPING	TOGGLE	F	Used for Stripping
CONDIT	TWOPARAM	F	1.50000E+001	0.00000E+000	Conditionin&g	Time(s)	E(V)
DELAY	TWOPARAM	T	3.00000E+001	1.00000E+000	Init. De&lay	Time(s)	Stab.(mV/s)
EQDELAY	QUANT	0.00000E+000	Equil. &Time (s)
IRCOMP	SELECTOR	0	IRCom&p
PFCOR	QUANT	5.00000E+001	PF Corr. (ohm)
SAMPLINGMODE	SELECTOR	1	Sampling &Mode
OCVCURVE	TABLE	120
	Pt	T	Vf	Vm	Ach	Over	Temp
	#	s	V vs. Ref.	V	V	bits	deg C
	0	0.25	2.61774E-001	2.61774E-001	-9.40555E-004	...........	-327.56
	1	0.5	2.61846E-001	2.65526E-001	-9.34355E-004	...........	-327.56
	2	0.75	2.62161E-001	2.62553E-001	-9.32288E-004	...........	-327.56
	3	1	2.62626E-001	2.59010E-001	-9.45288E-004	...........	-327.56
	4	1.25	2.62586E-001	2.55040E-001	-9.41955E-004	...........	-327.56
	5	1.5	2.61430E-001	2.55399E-001	-9.39155E-004	...........	-327.56
	6	1.75	2.59321E-001	2.51346E-001	-9.47088E-004	...........	-327.56
	7	2	2.56822E-001	2.47009E-001	-9.42088E-004	...........	-327.56
	8	2.25	2.54204E-001	2.48738E-001	-9.37955E-004	...........	-327.56
	9	2.5	2.51662E-001	2.46772E-001	-9.41155E-004	...........	-327.56
	10	2.75	2.49556E-001	2.45381E-001	-9.34821E-004	...........	-327.56
	11	3	2.47752E-001	2.31573E-001	-9.36155E-004	...........	-327.56
	12	3.25	2.45383E-001	2.38543E-001	-9.40888E-004	...........	-327.56
	13	3.5	2.42244E-001	2.39422E-001	-9.46555E-004	...........	-327.56
	14	3.75	2.39447E-001	2.33596E-001	-9.41888E-004	...........	-327.56
	15	4	2.37554E-001	2.25517E-001	-9.45421E-004	...........	-327.56
	16	4.25	2.35453E-001	2.21285E-001	-9.39088E-004	...........	-327.56
	17	4.5	2.32221E-001	2.28649E-001	-9.39555E-004	...........	-327.56
	18	4.75	2.28743E-001	2.24932E-001	-9.46621E-004	...........	-327.56
	19	5	2.26307E-001	2.16895E-001	-9.51155E-004	...........	-327.56
	20	5.25	2.24521E-001	2.13364E-001	-9.41888E-004	...........	-327.56
	21	5.5	2.22020E-001	2.09023E-001	-9.46888E-004	...........	-327.56
	22	5.75	2.18507E-001	2.13164E-001	-9.38421E-004	...........	-327.56
	23	6	2.14961E-001	2.06682E-001	-9.38221E-004	...........	-327.56
	24	6.25	2.12004E-001	1.96226E-001	-9.39888E-004	...........	-327.56
	25	6.5	2.08990E-001	1.99933E-001	-9.45621E-004	...........	-327.56
	26	6.75	2.05416E-001	1.98454E-001	-9.40755E-004	...........	-327.56
	27	7	2.02104E-001	2.00403E-001	-9.48155E-004	...........	-327.56
	28	7.25	2.00035E-001	1.97867E-001	-9.43155E-004	...........	-327.56
	29	7.5	1.99064E-001	1.93238E-001	-9.54955E-004	...........	-327.56
	30	7.75	1.98102E-001	1.86772E-001	-9.47288E-004	...........	-327.56
	31	8	1.96096E-001	1.85850E-001	-9.45688E-004	...........	-327.56
	32	8.25	1.93068E-001	1.89815E-001	-9.44488E-004	...........	-327.56
	33	8.5	1.90172E-001	1.86548E-001	-9.47355E-004	...........	-327.56
	34	8.75	1.88253E-001	1.80283E-001	-9.39821E-004	...........	-327.56
	35	9	1.86869E-001	1.84026E-001	-9.53355E-004	...........	-327.56
	36	9.25	1.85341E-001	1.79950E-001	-9.52755E-004	...........	-327.56
	37	9.5	1.83748E-001	1.81276E-001	-9.54021E-004	...........	-327.56
	38	9.75	1.82449E-001	1.81448E-001	-9.48221E-004	...........	-327.56
	39	10	1.81575E-001	1.78863E-001	-9.53821E-004	...........	-327.56
	40	10.25	1.80796E-001	1.69303E-001	-9.46221E-004	...........	-327.56
	41	10.5	1.79067E-001	1.59459E-001	-9.57688E-004	...........	-327.56
	42	10.75	1.75600E-001	1.72816E-001	-9.49888E-004	...........	-327.56
	43	11	1.71599E-001	1.73350E-001	-9.50688E-004	...........	-327.56
	44	11.25	1.69506E-001	1.76683E-001	-9.40288E-004	...........	-327.56
	45	11.5	1.70087E-001	1.71025E-001	-9.48888E-004	...........	-327.56
	46	11.75	1.71647E-001	1.65045E-001	-9.48821E-004	...........	-327.56
	47	12	1.71877E-001	1.58458E-001	-9.51288E-004	...........	-327.56
	48	12.25	1.69755E-001	1.60105E-001	-9.44355E-004	...........	-327.56
	49	12.5	1.66150E-001	1.60410E-001	-9.49755E-004	...........	-327.56
	50	12.75	1.62792E-001	1.57991E-001	-9.50021E-004	...........	-327.56
	51	13	1.60602E-001	1.57404E-001	-9.50155E-004	...........	-327.56
	52	13.25	1.59318E-001	1.57051E-001	-9.42288E-004	...........	-327.56
	53	13.5	1.58474E-001	1.59504E-001	-9.45221E-004	...........	-327.56
	54	13.75	1.57990E-001	1.56423E-001	-9.44155E-004	...........	-327.56
	55	14	1.57790E-001	1.56300E-001	-9.44288E-004	...........	-327.56
	56	14.25	1.57504E-001	1.53103E-001	-9.41755E-004	...........	-327.56
	57	14.5	1.56770E-001	1.52642E-001	-9.47821E-004	...........	-327.56
	58	14.75	1.55528E-001	1.49518E-001	-9.44355E-004	...........	-327.56
	59	15	1.53889E-001	1.46775E-001	-9.51821E-004	...........	-327.56
	60	15.25	1.51875E-001	1.42403E-001	-9.43888E-004	...........	-327.56
	61	15.5	1.49547E-001	1.47807E-001	-9.53888E-004	...........	-327.56
	62	15.75	1.47240E-001	1.35970E-001	-9.47355E-004	...........	-327.56
	63	16	1.44862E-001	1.27795E-001	-9.51821E-004	...........	-327.56
	64	16.25	1.41598E-001	1.32278E-001	-9.44288E-004	...........	-327.56
	65	16.5	1.37481E-001	1.30944E-001	-9.45955E-004	...........	-327.56
	66	16.75	1.33938E-001	1.33231E-001	-9.49288E-004	...........	-327.56
	67	17	1.32025E-001	1.30064E-001	-9.49488E-004	...........	-327.56
	68	17.25	1.31406E-001	1.30108E-001	-9.53221E-004	...........	-327.56
	69	17.5	1.31073E-001	1.25074E-001	-9.50221E-004	...........	-327.56
	70	17.75	1.30381E-001	1.32402E-001	-9.54155E-004	...........	-327.56
	71	18	1.29618E-001	1.31664E-001	-9.53221E-004	...........	-327.56
	72	18.25	1.29375E-001	1.24333E-001	-9.45221E-004	...........	-327.56
	73	18.5	1.29228E-001	1.21258E-001	-9.54288E-004	...........	-327.56
	74	18.75	1.28067E-001	1.19533E-001	-9.45088E-004	...........	-327.56
	75	19	1.25600E-001	1.14619E-001	-9.50288E-004	...........	-327.56
	76	19.25	1.22392E-001	1.11730E-001	-9.56955E-004	...........	-327.56
	77	19.5	1.18889E-001	1.05772E-001	-9.43421E-004	...........	-327.56
	78	19.75	1.15220E-001	1.06850E-001	-9.46421E-004	...........	-327.56
	79	20	1.11801E-001	1.11877E-001	-9.45488E-004	...........	-327.56
	80	20.25	1.09607E-001	1.13868E-001	-9.50221E-004	...........	-327.56
	81	20.5	1.09346E-001	1.13857E-001	-9.52688E-004	...........	-327.56
	82	20.75	1.10443E-001	1.06828E-001	-9.47688E-004	...........	-327.56
	83	21	1.11373E-001	1.09813E-001	-9.47355E-004	...........	-327.56
	84	21.25	1.11194E-001	1.08051E-001	-9.47221E-004	...........	-327.56
	85	21.5	1.10220E-001	1.06859E-001	-9.58088E-004	...........	-327.56
	86	21.75	1.08980E-001	9.96584E-002	-9.56821E-004	...........	-327.56
	87	22	1.07316E-001	9.93483E-002	-9.54955E-004	...........	-327.56
	88	22.25	1.04910E-001	9.47804E-002	-9.56688E-004	...........	-327.56
	89	22.5	1.01854E-001	8.85097E-002	-9.62421E-004	...........	-327.56
	90	22.75	9.83713E-002	8.96375E-002	-9.59288E-004	...........	-327.56
	91	23	9.49369E-002	9.48476E-002	-9.54088E-004	...........	-327.56
	92	23.25	9.25524E-002	9.29057E-002	-9.56088E-004	...........	-327.56
	93	23.5	9.18044E-002	9.21881E-002	-9.60821E-004	...........	-327.56
	94	23.75	9.19819E-002	8.70319E-002	-9.59821E-004	...........	-327.56
	95	24	9.16174E-002	7.69511E-002	-9.54488E-004	...........	-327.56
	96	24.25	8.95691E-002	7.88366E-002	-9.62221E-004	...........	-327.56
	97	24.5	8.59724E-002	7.77195E-002	-9.69888E-004	...........	-327.56
	98	24.75	8.22884E-002	8.15442E-002	-9.61955E-004	...........	-327.56
	99	25	7.99658E-002	7.94241E-002	-9.61288E-004	...........	-327.56
	100	25.25	7.92943E-002	8.23848E-002	-9.62355E-004	...........	-327.56
	101	25.5	7.97050E-002	8.31088E-002	-9.56555E-004	...........	-327.56
	102	25.75	8.06511E-002	8.53383E-002	-9.54888E-004	...........	-327.56
	103	26	8.16750E-002	7.44922E-002	-9.68955E-004	...........	-327.56
	104	26.25	8.18300E-002	7.06156E-002	-9.60621E-004	...........	-327.56
	105	26.5	8.03605E-002	8.16796E-002	-9.57755E-004	...........	-327.56
	106	26.75	7.82394E-002	7.94260E-002	-9.64221E-004	...........	-327.56
	107	27	7.71444E-002	7.29511E-002	-9.56955E-004	...........	-327.56
	108	27.25	7.70362E-002	7.59462E-002	-9.64088E-004	...........	-327.56
	109	27.5	7.67900E-002	7.51834E-002	-9.64755E-004	...........	-327.56
	110	27.75	7.62537E-002	7.97443E-002	-9.56821E-004	...........	-327.56
	111	28	7.60894E-002	7.67561E-002	-9.55821E-004	...........	-327.56
	112	28.25	7.62922E-002	6.60759E-002	-9.56488E-004	...........	-327.56
	113	28.5	7.55449E-002	5.65551E-002	-9.60955E-004	...........	-327.56
	114	28.75	7.23188E-002	5.17404E-002	-9.55355E-004	...........	-327.56
	115	29	6.66340E-002	5.00060E-002	-9.57221E-004	...........	-327.56
	116	29.25	6.01583E-002	4.72922E-002	-9.59888E-004	...........	-327.56
	117	29.5	5.46436E-002	4.74990E-002	-9.67821E-004	...........	-327.56
	118	29.75	5.07716E-002	4.38159E-002	-9.55955E-004	...........	-327.56
	119	30	4.82338E-002	4.36796E-002	-9.54221E-004	...........	-327.56
EOC	QUANT	0.0482338	Open Circuit (V)
PSTATMODEL	IQUANT	5	Pstat Model
PSTATSECTION	LABEL	REF3000-48128	Pstat Section
PSTATSERIALNO	LABEL	48128	Pstat Serial Number
CTRLMODE	IQUANT	1	Control Mode
ELECTROMETER	IQUANT	0	RE=0 or CS=1
IESTAB	IQUANT	2	I/E Stability
CASPEED	IQUANT	4	Control Amp Speed
CONVENTION	IQUANT	1	Current Convention
ICHRANGE	IQUANT	2	Ich Range
ICHRANGEMODE	TOGGLE	F	Ich Auto Range
ICHOFFSETENABLE	TOGGLE	F	Ich Offset Enable
ICHOFFSET	QUANT	0	Ich Offset (V)
ICHFILTER	IQUANT	2	Ich Filter
VCHRANGE	IQUANT	3	Vch Range
VCHRANGEMODE	TOGGLE	T	Vch Auto Range
VCHOFFSETENABLE	TOGGLE	F	Vch Offset Enable
VCHOFFSET	QUANT	0	Vch Offset (V)
VCHFILTER	IQUANT	1	Vch Filter
ACHRANGE	IQUANT	2	Ach Range
ACHOFFSETENABLE	TOGGLE	F	Ach Offset Enable
ACHOFFSET	QUANT	0	Ach Offset (V)
ACHFILTER	IQUANT	1	Ach Filter
IERANGELOWERLIMIT	IQUANT	2	I/E Range Lower Limit
IERANGEMODE	TOGGLE	T	I/E AutoRange
IERANGE	IQUANT	11	I/E Range
POSFEEDENABLE	TOGGLE	F	Positive Feedback IR Comp
POSFEEDRESISTANCE	QUANT	0	Positive Feedback Resistance (ohm)
ACHSELECT	IQUANT	1	Ach Select
SENSECABLEID	IQUANT	14	Sense Cable ID
PWRCABLEID	IQUANT	7	Power Cable ID
DCCALDATE	LABEL	8/16/2024	DC Calibration Date
ACCALDATE	LABEL	8/16/2024	AC Calibration Date
THERMOSELECT	IQUANT	1	Thermo Select
FRAMEWORKVERSION	LABEL	7.10.3	Framework Version
INSTRUMENTVERSION	LABEL	4.91	Instrument Version
COMMVERSION	LABEL	5.10	Communications Version
CPUPLDVERSION	LABEL	6.00	CPU PLD Version
CTRLPLDVERSION	LABEL	3.21	CTRL PLD Version
PSTATPLDVERSION	LABEL	0.00	PSTAT PLD Version
COMPLIANCEVOLTAGE	IQUANT	0	Compliance Voltage
CURVE1	TABLE
	Pt	T	Vf	Im	Vu	Sig	Ach	IERange	Over	Temp
	#	s	V vs. Ref.	A	V	V	V	#	bits	deg C
	0	0.05	4.91851E-002	-1.82406E-003	0.00000E+000	4.82500E-002	-2.68189E-003	11	...........	-327.56
	34	1.75	8.18790E-002	1.49868E-003	0.00000E+000	8.22501E-002	-2.68455E-003	9	...........	-327.56
	68	3.45	1.16444E-001	8.30158E-003	0.00000E+000	1.16250E-001	-2.68122E-003	10	...........	-327.56
	102	5.15	1.50433E-001	8.43362E-003	0.00000E+000	1.50250E-001	-2.68755E-003	10	...........	-327.56
	136	6.85	1.84309E-001	1.33385E-002	0.00000E+000	1.84250E-001	-2.67955E-003	10	...........	-327.56
	170	8.55	2.18205E-001	1.89227E-002	0.00000E+000	2.18250E-001	-2.68022E-003	10	...........	-327.56
	204	10.25	2.52573E-001	3.15385E-002	0.00000E+000	2.52250E-001	-2.67922E-003	11	...........	-327.56
	238	11.95	2.86427E-001	4.15517E-002	0.00000E+000	2.86250E-001	-2.67855E-003	11	...........	-327.56
	272	13.65	3.20277E-001	5.68682E-002	0.00000E+000	3.20250E-001	-2.69089E-003	11	...........	-327.56
	306	15.35	3.54061E-001	7.56069E-002	0.00000E+000	3.54250E-001	-2.67589E-003	11	...........	-327.56
	340	17.05	3.87966E-001	9.39572E-002	0.00000E+000	3.88250E-001	-2.69389E-003	11	...........	-327.56
	374	18.75	4.21842E-001	1.19577E-001	0.00000E+000	4.22250E-001	-2.68055E-003	11	...........	-327.56
	408	20.45	4.55837E-001	1.06019E-001	0.00000E+000	4.56250E-001	-2.67989E-003	11	...........	-327.56
	442	22.15	4.89942E-001	8.42281E-002	0.00000E+000	4.90250E-001	-2.66922E-003	11	...........	-327.56
	476	23.85	5.24020E-001	6.90428E-002	0.00000E+000	5.24250E-001	-2.67055E-003	11	...........	-327.56
	510	25.55	5.58065E-001	5.78436E-002	0.00000E+000	5.58250E-001	-2.67255E-003	11	...........	-327.56
	544	27.25	5.92134E-001	5.08378E-002	0.00000E+000	5.92250E-001	-2.66389E-003	11	...........	-327.56
	578	28.95	6.26121E-001	4.19335E-002	0.00000E+000	6.26250E-001	-2.66655E-003	11	...........	-327.56
	612	30.65	6.60067E-001	3.73958E-002	0.00000E+000	6.60250E-001	-2.68089E-003	11	...........	-327.56
	646	32.35	6.94092E-001	3.35733E-002	0.00000E+000	6.94250E-001	-2.67455E-003	11	...........	-327.56
	680	34.05	7.28066E-001	3.07768E-002	0.00000E+000	7.28250E-001	-2.66789E-003	11	...........	-327.56
	714	35.75	7.61979E-001	2.87627E-002	0.00000E+000	7.62250E-001	-2.66422E-003	11	...........	-327.56
	748	37.45	7.96006E-001	2.72927E-002	0.00000E+000	7.96250E-001	-2.67189E-003	11	...........	-327.56
	782	39.15	8.29975E-001	2.67242E-002	0.00000E+000	8.30250E-001	-2.66489E-003	11	...........	-327.56
	816	40.85	8.63854E-001	2.63980E-002	0.00000E+000	8.64250E-001	-2.67355E-003	11	...........	-327.56
	850	42.55	8.97887E-001	2.65706E-002	0.00000E+000	8.98250E-001	-2.67422E-003	11	...........	-327.56
	884	44.25	9.31850E-001	2.76973E-002	0.00000E+000	9.32250E-001	-2.67422E-003	11	...........	-327.56
	918	45.95	9.65741E-001	3.03480E-002	0.00000E+000	9.66250E-001	-2.67922E-003	11	...........	-327.56
	952	47.65	9.99733E-001	3.90311E-002	0.00000E+000	1.00025E+000	-2.66789E-003	11	...........	-327.56
	986	49.35	1.03358E+000	5.95450E-002	0.00000E+000	1.03425E+000	-2.67122E-003	11	...........	-327.56
	1020	51.05	1.06742E+000	7.69704E-002	0.00000E+000	1.06825E+000	-2.66622E-003	11	...........	-327.56
	1054	52.75	1.10131E+000	8.48625E-002	0.00000E+000	1.10225E+000	-2.66689E-003	11	...........	-327.56
	1088	54.45	1.13527E+000	8.61785E-002	0.00000E+000	1.13625E+000	-2.67422E-003	11	...........	-327.56
	1122	56.15	1.16921E+000	8.48779E-002	0.00000E+000	1.17025E+000	-2.67089E-003	11	...........	-327.56
	1156	57.85	1.20320E+000	8.28170E-002	0.00000E+000	1.20425E+000	-2.67322E-003	11	...........	-327.56
	1190	59.55	1.23725E+000	8.25480E-002	0.00000E+000	1.23825E+000	-2.67355E-003	11	...........	-327.56
	1224	61.25	1.27112E+000	9.25161E-002	0.00000E+000	1.27225E+000	-2.67289E-003	11	...........	-327.56
	1258	62.95	1.30498E+000	1.23132E-001	0.00000E+000	1.30625E+000	-2.66822E-003	11	...........	-327.56
	1292	64.65	1.33880E+000	1.74132E-001	0.00000E+000	1.34025E+000	-2.67755E-003	11	...........	-327.56
	1326	66.35	1.37260E+000	2.33569E-001	0.00000E+000	1.37425E+000	-2.66422E-003	11	...........	-327.56
	1360	68.05	1.40681E+000	2.99200E-001	0.00000E+000	1.40825E+000	-2.67322E-003	12	...........	-327.56
	1394	69.75	1.44075E+000	3.67687E-001	0.00000E+000	1.44225E+000	-2.67989E-003	12	...........	-327.56
	1428	71.45	1.47460E+000	4.38680E-001	0.00000E+000	1.47625E+000	-2.67122E-003	12	...........	-327.56
	1462	73.15	1.50860E+000	5.13787E-001	0.00000E+000	1.51025E+000	-2.66989E-003	12	...........	-327.56
	1496	74.85	1.54249E+000	5.89830E-001	0.00000E+000	1.54425E+000	-2.66322E-003	12	...........	-327.56
	1530	76.55	1.57631E+000	6.69640E-001	0.00000E+000	1.57825E+000	-2.66989E-003	12	...........	-327.56
	1564	78.25	1.61023E+000	7.41659E-001	0.00000E+000	1.61225E+000	-2.67389E-003	12	...........	-327.56
	1598	79.95	1.64418E+000	8.20094E-001	0.00000E+000	1.64625E+000	-2.66722E-003	12	...........	-327.56
	1632	81.65	1.67807E+000	8.99349E-001	0.00000E+000	1.68025E+000	-2.67589E-003	12	...........	-327.56
	1666	83.35	1.68402E+000	9.19239E-001	0.00000E+000	1.68625E+000	-2.67455E-003	12	...........	-327.56
	1700	85.05	1.65016E+000	8.50474E-001	0.00000E+000	1.65225E+000	-2.67089E-003	12	...........	-327.56
	1734	86.75	1.61626E+000	7.78349E-001	0.00000E+000	1.61825E+000	-2.66755E-003	12	...........	-327.56
	1768	88.45	1.58228E+000	7.06626E-001	0.00000E+000	1.58425E+000	-2.67422E-003	12	...........	-327.56
	1802	90.15	1.54842E+000	6.36179E-001	0.00000E+000	1.55025E+000	-2.67122E-003	12	...........	-327.56
	1836	91.85	1.51454E+000	5.67193E-001	0.00000E+000	1.51625E+000	-2.66889E-003	12	...........	-327.56
	1870	93.55	1.48056E+000	5.00434E-001	0.00000E+000	1.48225E+000	-2.67555E-003	12	...........	-327.56
	1904	95.25	1.44662E+000	4.34692E-001	0.00000E+000	1.44825E+000	-2.66855E-003	12	...........	-327.56
	1938	96.95	1.41277E+000	3.72095E-001	0.00000E+000	1.41425E+000	-2.68889E-003	12	...........	-327.56
	1972	98.65	1.37884E+000	3.12306E-001	0.00000E+000	1.38025E+000	-2.67055E-003	12	...........	-327.56
	2006	100.35	1.34486E+000	2.53373E-001	0.00000E+000	1.34625E+000	-2.67489E-003	12	...........	-327.56
	2040	102.05	1.31081E+000	1.96815E-001	0.00000E+000	1.31225E+000	-2.67255E-003	11	...........	-327.56
	2074	103.75	1.27696E+000	1.46520E-001	0.00000E+000	1.27825E+000	-2.67655E-003	11	...........	-327.56
[...]
	2176	108.85	1.17548E+000	4.45659E-002	0.00000E+000	1.17625E+000	-2.68255E-003	11	...........	-327.56
	2210	110.55	1.14158E+000	3.07655E-002	0.00000E+000	1.14225E+000	-2.66889E-003	11	...........	-327.56
	2244	112.25	1.10718E+000	2.35007E-002	0.00000E+000	1.10825E+000	-2.66922E-003	10	...........	-327.56
	2278	113.95	1.07323E+000	1.89572E-002	0.00000E+000	1.07425E+000	-2.68155E-003	10	...........	-327.56
	2312	115.65	1.03926E+000	1.65140E-002	0.00000E+000	1.04025E+000	-2.67689E-003	10	...........	-327.56
	2346	117.35	1.00539E+000	1.55348E-002	0.00000E+000	1.00625E+000	-2.66755E-003	10	...........	-327.56
	2380	119.05	9.71407E-001	1.52565E-002	0.00000E+000	9.72250E-001	-2.67122E-003	10	...........	-327.56
	2414	120.75	9.37350E-001	1.52435E-002	0.00000E+000	9.38250E-001	-2.67389E-003	10	...........	-327.56
	2448	122.45	9.03490E-001	1.56814E-002	0.00000E+000	9.04250E-001	-2.67955E-003	10	...........	-327.56
	2482	124.15	8.69488E-001	1.60822E-002	0.00000E+000	8.70250E-001	-2.67055E-003	10	...........	-327.56
	2516	125.85	8.35473E-001	1.68402E-002	0.00000E+000	8.36250E-001	-2.68455E-003	10	...........	-327.56
	2550	127.55	8.01572E-001	1.71286E-002	0.00000E+000	8.02250E-001	-2.67122E-003	10	...........	-327.56
	2584	129.25	7.67580E-001	1.62656E-002	0.00000E+000	7.68250E-001	-2.67089E-003	10	...........	-327.56
	2618	130.95	7.33579E-001	1.57256E-002	0.00000E+000	7.34250E-001	-2.67989E-003	10	...........	-327.56
	2652	132.65	6.99716E-001	1.59087E-002	0.00000E+000	7.00250E-001	-2.67922E-003	10	...........	-327.56
	2686	134.35	6.65769E-001	1.36925E-002	0.00000E+000	6.66250E-001	-2.69122E-003	10	...........	-327.56
	2720	136.05	6.31745E-001	1.26302E-002	0.00000E+000	6.32250E-001	-2.68055E-003	10	...........	-327.56
	2754	137.75	5.97853E-001	1.12392E-002	0.00000E+000	5.98250E-001	-2.68155E-003	10	...........	-327.56
	2788	139.45	5.63859E-001	9.73755E-003	0.00000E+000	5.64250E-001	-2.69122E-003	10	...........	-327.56
	2822	141.15	5.29884E-001	7.85098E-003	0.00000E+000	5.30250E-001	-2.67989E-003	10	...........	-327.56
	2856	142.85	4.96066E-001	5.64978E-003	0.00000E+000	4.96250E-001	-2.67022E-003	10	...........	-327.56
	2890	144.55	4.62075E-001	3.42818E-003	0.00000E+000	4.62250E-001	-2.67889E-003	10	...........	-327.56
	2924	146.25	4.27424E-001	1.27171E-003	0.00000E+000	4.28250E-001	-2.67555E-003	9	...........	-327.56
	2958	147.95	3.93819E-001	-1.41136E-003	0.00000E+000	3.94250E-001	-2.67989E-003	9	...........	-327.56
	2992	149.65	3.60245E-001	-4.16617E-003	0.00000E+000	3.60250E-001	-2.67822E-003	10	...........	-327.56
	3026	151.35	3.26269E-001	-7.16353E-003	0.00000E+000	3.26250E-001	-2.66855E-003	10	...........	-327.56
	3060	153.05	2.92431E-001	-1.02826E-002	0.00000E+000	2.92250E-001	-2.67355E-003	10	...........	-327.56
	3094	154.75	2.58474E-001	-1.28221E-002	0.00000E+000	2.58250E-001	-2.69122E-003	10	...........	-327.56
	3128	156.45	2.24610E-001	-1.34061E-002	0.00000E+000	2.24250E-001	-2.66922E-003	10	...........	-327.56
	3162	158.15	1.90702E-001	-1.63137E-002	0.00000E+000	1.90250E-001	-2.67689E-003	10	...........	-327.56
	3196	159.85	1.56733E-001	-1.62422E-002	0.00000E+000	1.56250E-001	-2.67955E-003	10	...........	-327.56
	3230	161.55	1.22790E-001	-1.65849E-002	0.00000E+000	1.22250E-001	-2.68189E-003	10	...........	-327.56
	3264	163.25	8.88059E-002	-1.70673E-002	0.00000E+000	8.82500E-002	-2.68522E-003	10	...........	-327.56
	3298	164.95	5.48238E-002	-1.58945E-002	0.00000E+000	5.42501E-002	-2.66955E-003	10	...........	-327.56
	3332	166.65	2.09136E-002	-1.52766E-002	0.00000E+000	2.02500E-002	-2.67389E-003	10	...........	-327.56
	3352	167.65	9.15363E-004	-1.35359E-002	0.00000E+000	2.50041E-004	-2.67655E-003	10	...........	-327.56
CURVE2	TABLE
	Pt	T	Vf	Im	Vu	Sig	Ach	IERange	Over	Temp
	#	s	V vs. Ref.	A	V	V	V	#	bits	deg C
	3353	167.7	1.89866E-003	-1.32027E-002	0.00000E+000	1.25003E-003	-2.67722E-003	10	...........	-327.56
	3354	167.75	2.88525E-003	-1.30407E-002	0.00000E+000	2.25002E-003	-2.67155E-003	10	...........	-327.56
	3355	167.8	3.87303E-003	-1.27855E-002	0.00000E+000	3.25006E-003	-2.67389E-003	10	...........	-327.56
	3356	167.85	4.88165E-003	-1.25325E-002	0.00000E+000	4.25005E-003	-2.68089E-003	10	...........	-327.56
	3357	167.9	5.88803E-003	-1.24438E-002	0.00000E+000	5.25004E-003	-2.67855E-003	10	...........	-327.56
	3358	167.95	6.90713E-003	-1.33248E-002	0.00000E+000	6.25002E-003	-2.67155E-003	10	...........	-327.56
	3359	168	7.89568E-003	-1.31360E-002	0.00000E+000	7.25007E-003	-2.68022E-003	10	...........	-327.56
	3360	168.05	8.89405E-003	-1.28551E-002	0.00000E+000	8.25006E-003	-2.66955E-003	10	...........	-327.56
	3361	168.1	9.88285E-003	-1.26347E-002	0.00000E+000	9.25004E-003	-2.68022E-003	10	...........	-327.56
	3362	168.15	1.08742E-002	-1.23360E-002	0.00000E+000	1.02500E-002	-2.68222E-003	10	...........	-327.56
	3363	168.2	1.18738E-002	-1.24669E-002	0.00000E+000	1.12500E-002	-2.68189E-003	10	...........	-327.56
	3364	168.25	1.28729E-002	-1.19871E-002	0.00000E+000	1.22501E-002	-2.68489E-003	10	...........	-327.56
	3365	168.3	1.38652E-002	-1.17662E-002	0.00000E+000	1.32501E-002	-2.67789E-003	10	...........	-327.56
	3366	168.35	1.48611E-002	-1.15615E-002	0.00000E+000	1.42500E-002	-2.67389E-003	10	...........	-327.56
	3367	168.4	1.58528E-002	-1.12392E-002	0.00000E+000	1.52500E-002	-2.68055E-003	10	...........	-327.56
	3368	168.45	1.68534E-002	-1.10440E-002	0.00000E+000	1.62501E-002	-2.67955E-003	10	...........	-327.56
	3369	168.5	1.78516E-002	-1.08053E-002	0.00000E+000	1.72501E-002	-2.68522E-003	10	...........	-327.56
	3370	168.55	1.88535E-002	-1.05780E-002	0.00000E+000	1.82500E-002	-2.68355E-003	10	...........	-327.56
	3371	168.6	1.98469E-002	-1.03470E-002	0.00000E+000	1.92500E-002	-2.68322E-003	10	...........	-327.56
	3372	168.65	2.08366E-002	-9.80002E-003	0.00000E+000	2.02500E-002	-2.68322E-003	10	...........	-327.56
	3373	168.7	2.18326E-002	-9.56460E-003	0.00000E+000	2.12501E-002	-2.66822E-003	10	...........	-327.56
	3374	168.75	2.28306E-002	-9.43997E-003	0.00000E+000	2.22501E-002	-2.68389E-003	10	...........	-327.56
	3375	168.8	2.38220E-002	-9.21959E-003	0.00000E+000	2.32500E-002	-2.67322E-003	10	...........	-327.56
	3376	168.85	2.48184E-002	-8.99597E-003	0.00000E+000	2.42500E-002	-2.67789E-003	10	...........	-327.56
	3377	168.9	2.58144E-002	-8.94389E-003	0.00000E+000	2.52500E-002	-2.67355E-003	10	...........	-327.56
	3378	168.95	2.68126E-002	-8.91426E-003	0.00000E+000	2.62501E-002	-2.66889E-003	10	...........	-327.56
	3379	169	2.77911E-002	-8.60996E-003	0.00000E+000	2.72501E-002	-2.67722E-003	10	...........	-327.56
	3380	169.05	2.87927E-002	-8.44594E-003	0.00000E+000	2.82500E-002	-2.67389E-003	10	...........	-327.56
	3381	169.1	2.97877E-002	-8.33295E-003	0.00000E+000	2.92500E-002	-2.67222E-003	10	...........	-327.56
	3382	169.15	3.07836E-002	-8.36241E-003	0.00000E+000	3.02501E-002	-2.68222E-003	10	...........	-327.56
	3383	169.2	3.17778E-002	-8.25803E-003	0.00000E+000	3.12501E-002	-2.68022E-003	10	...........	-327.56
	3384	169.25	3.27715E-002	-8.08501E-003	0.00000E+000	3.22500E-002	-2.67155E-003	10	...........	-327.56
	3385	169.3	3.37591E-002	-7.73875E-003	0.00000E+000	3.32500E-002	-2.67222E-003	10	...........	-327.56
	3386	169.35	3.47560E-002	-7.53845E-003	0.00000E+000	3.42500E-002	-2.67955E-003	10	...........	-327.56
	3387	169.4	3.57580E-002	-7.72611E-003	0.00000E+000	3.52501E-002	-2.67789E-003	10	...........	-327.56
	3388	169.45	3.67643E-002	-7.60070E-003	0.00000E+000	3.62501E-002	-2.66722E-003	10	...........	-327.56
	3389	169.5	3.77511E-002	-7.35076E-003	0.00000E+000	3.72500E-002	-2.67922E-003	10	...........	-327.56
	3390	169.55	3.87556E-002	-7.22213E-003	0.00000E+000	3.82500E-002	-2.68455E-003	10	...........	-327.56
	3391	169.6	3.97457E-002	-6.93257E-003	0.00000E+000	3.92500E-002	-2.68455E-003	10	...........	-327.56
	3392	169.65	4.07310E-002	-6.74691E-003	0.00000E+000	4.02501E-002	-2.67555E-003	10	...........	-327.56
	3393	169.7	4.17331E-002	-6.64474E-003	0.00000E+000	4.12501E-002	-2.67455E-003	10	...........	-327.56
	3394	169.75	4.27232E-002	-6.13201E-003	0.00000E+000	4.22500E-002	-2.68155E-003	10	...........	-327.56
	3395	169.8	4.37264E-002	-5.94577E-003	0.00000E+000	4.32500E-002	-2.67622E-003	10	...........	-327.56
	3396	169.85	4.47320E-002	-5.81780E-003	0.00000E+000	4.42501E-002	-2.67255E-003	10	...........	-327.56
	3397	169.9	4.57317E-002	-5.91839E-003	0.00000E+000	4.52501E-002	-2.68089E-003	10	...........	-327.56
	3398	169.95	4.67308E-002	-5.93883E-003	0.00000E+000	4.62500E-002	-2.67022E-003	10	...........	-327.56
	3399	170	4.77153E-002	-5.73891E-003	0.00000E+000	4.72500E-002	-2.66922E-003	10	...........	-327.56