File: testing/data/240902_09_MCL13_cswWE_CV2_750C_CO2.DTA
EXPLAIN
TAG	CV
TITLE	LABEL	Cyclic Voltammetry	Test Identifier
DATE	LABEL	9/3/2024	Date
TIME	LABEL	2:10:46	Time
NOTES	NOTES	5	Notes...
	cswWE - carbon steel wire
cspWE - carbon steel plate 2x2 tapered

Carbon steel plate counter electrode
Carbon steel wire reference electrode
PSTAT	PSTAT	REF3000-48128	Potentiostat
VINIT	POTEN	0.00000E+000	T	Initial E (V)
VLIMIT1	POTEN	1.70000E+000	F	Scan Limit 1 (V)
VLIMIT2	POTEN	-9.00000E-001	F	Scan Limit 2 (V)
VFINAL	POTEN	1.70000E+000	F	Final E (V)
SCANRATE	QUANT	2.00000E+000	Scan Rate (mV/s)
STEPSIZE	QUANT	1.00000E+000	Step Size (mV)
CYCLES	IQUANT	2	Cycles (#)
IMODE	SELECTOR	0	I/E Range Mode
IRANGE	QUANT	3.00000E-001	Max Current (mA)
AREA	QUANT	1.00000E+000	Sample Area (cm^2)
EQDELAY	QUANT	0.00000E+000	Equil. Time (s)
IRCOMP	SELECTOR	0	IRComp
PFCOR	QUANT	5.00000E+001	PF Corr. (ohm)
SAMPLINGMODE	SELECTOR	1	Sampling Mode
EOC	QUANT	0.1603511	Open Circuit (V)
ELECTRODETYPE	SELECTOR	0	Electrode Type
STRIPPING	TOGGLE	F	Used for Stripping
SEQUENCER	TOGGLE	TRUE	Run as Sequence
PSTATMODEL	IQUANT	5	Pstat Model
PSTATSECTION	LABEL	REF3000-48128	Pstat Section
PSTATSERIALNO	LABEL	48128	Pstat Serial Number
CTRLMODE	IQUANT	1	Control Mode
ELECTROMETER	IQUANT	0	RE=0 or CS=1
IESTAB	IQUANT	2	I/E Stability
CASPEED	IQUANT	4	Control Amp Speed
CONVENTION	IQUANT	1	Current Convention
ICHRANGE	IQUANT	2	Ich Range
ICHRANGEMODE	TOGGLE	F	Ich Auto Range
ICHOFFSETENABLE	TOGGLE	F	Ich Offset Enable
ICHOFFSET	QUANT	0	Ich Offset (V)
ICHFILTER	IQUANT	3	Ich Filter
VCHRANGE	IQUANT	2	Vch Range
VCHRANGEMODE	TOGGLE	F	Vch Auto Range
VCHOFFSETENABLE	TOGGLE	F	Vch Offset Enable
VCHOFFSET	QUANT	0	Vch Offset (V)
VCHFILTER	IQUANT	3	Vch Filter
ACHRANGE	IQUANT	2	Ach Range
ACHOFFSETENABLE	TOGGLE	F	Ach Offset Enable
ACHOFFSET	QUANT	0	Ach Offset (V)
ACHFILTER	IQUANT	1	Ach Filter
IERANGELOWERLIMIT	IQUANT	2	I/E Range Lower Limit
IERANGEMODE	TOGGLE	T	I/E AutoRange
IERANGE	IQUANT	9	I/E Range
POSFEEDENABLE	TOGGLE	F	Positive Feedback IR Comp
POSFEEDRESISTANCE	QUANT	0	Positive Feedback Resistance (ohm)
ACHSELECT	IQUANT	4	Ach Select
SENSECABLEID	IQUANT	14	Sense Cable ID
PWRCABLEID	IQUANT	7	Power Cable ID
DCCALDATE	LABEL	8/16/2024	DC Calibration Date
ACCALDATE	LABEL	8/16/2024	AC Calibration Date
THERMOSELECT	IQUANT	1	Thermo Select
FRAMEWORKVERSION	LABEL	7.10.3	Framework Version
INSTRUMENTVERSION	LABEL	4.91	Instrument Version
COMMVERSION	LABEL	5.10	Communications Version
CPUPLDVERSION	LABEL	6.00	CPU PLD Version
CTRLPLDVERSION	LABEL	3.21	CTRL PLD Version
PSTATPLDVERSION	LABEL	0.00	PSTAT PLD Version
COMPLIANCEVOLTAGE	IQUANT	0	Compliance Voltage
CURVE1	TABLE
	Pt	T	Vf	Im	Vu	Sig	Ach	IERange	Over	Temp
	#	s	V vs. Ref.	A	V	V	V	#	bits	deg C
	0	0.5	1.60050E-001	5.19932E-004	0.00000E+000	1.60350E-001	-9.18214E-005	9	...........	-327.56
	42	21.5	2.01919E-001	1.02292E-002	0.00000E+000	2.02350E-001	-9.25881E-005	10	...........	-327.56
	84	42.5	2.43745E-001	1.79366E-002	0.00000E+000	2.44350E-001	-9.92214E-005	10	...........	-327.56
	126	63.5	2.85704E-001	2.50190E-002	0.00000E+000	2.86350E-001	-1.03121E-004	10	...........	-327.56
	168	84.5	3.27897E-001	3.40359E-002	0.00000E+000	3.28350E-001	-1.08655E-004	11	...........	-327.56
	210	105.5	3.69886E-001	2.72006E-002	0.00000E+000	3.70350E-001	-1.05321E-004	11	...........	-327.56
	252	126.5	4.11650E-001	1.77614E-002	0.00000E+000	4.12350E-001	-1.02588E-004	10	...........	-327.56
	294	147.5	4.53613E-001	1.62144E-002	0.00000E+000	4.54350E-001	-1.01821E-004	10	...........	-327.56
	336	168.5	4.95628E-001	1.71611E-002	0.00000E+000	4.96350E-001	-1.03355E-004	10	...........	-327.56
	378	189.5	5.37536E-001	1.73393E-002	0.00000E+000	5.38350E-001	-1.01455E-004	10	...........	-327.56
	420	210.5	5.79470E-001	1.72295E-002	0.00000E+000	5.80350E-001	-1.02321E-004	10	...........	-327.56
	462	231.5	6.21499E-001	1.72827E-002	0.00000E+000	6.22350E-001	-9.87548E-005	10	...........	-327.56
	504	252.5	6.63443E-001	1.67773E-002	0.00000E+000	6.64350E-001	-1.01821E-004	10	...........	-327.56
	546	273.5	7.05440E-001	1.67215E-002	0.00000E+000	7.06350E-001	-1.03188E-004	10	...........	-327.56
	588	294.5	7.47392E-001	1.63440E-002	0.00000E+000	7.48350E-001	-1.00621E-004	10	...........	-327.56
	630	315.5	7.89317E-001	1.56810E-002	0.00000E+000	7.90350E-001	-1.01721E-004	10	...........	-327.56
	672	336.5	8.31291E-001	1.49931E-002	0.00000E+000	8.32350E-001	-1.02788E-004	10	...........	-327.56
	714	357.5	8.73277E-001	1.45997E-002	0.00000E+000	8.74350E-001	-1.03088E-004	10	...........	-327.56
	756	378.5	9.15180E-001	1.50611E-002	0.00000E+000	9.16350E-001	-1.02488E-004	10	...........	-327.56
	798	399.5	9.57166E-001	1.77940E-002	0.00000E+000	9.58350E-001	-9.96214E-005	10	...........	-327.56
	840	420.5	9.99023E-001	2.39579E-002	0.00000E+000	1.00035E+000	-9.52881E-005	10	...........	-327.56
	882	441.5	1.04119E+000	3.25418E-002	0.00000E+000	1.04235E+000	-1.02621E-004	11	...........	-327.56
	924	462.5	1.08322E+000	4.04633E-002	0.00000E+000	1.08435E+000	-1.03388E-004	11	...........	-327.56
	966	483.5	1.12516E+000	4.15062E-002	0.00000E+000	1.12635E+000	-1.01321E-004	11	...........	-327.56
	1008	504.5	1.16707E+000	3.29594E-002	0.00000E+000	1.16835E+000	-1.03788E-004	11	...........	-327.56
	1050	525.5	1.20908E+000	4.31580E-002	0.00000E+000	1.21035E+000	-1.00921E-004	11	...........	-327.56
	1092	546.5	1.25100E+000	6.87829E-002	0.00000E+000	1.25235E+000	-1.04455E-004	11	...........	-327.56
	1134	567.5	1.29289E+000	1.09500E-001	0.00000E+000	1.29435E+000	-9.93881E-005	11	...........	-327.56
	1176	588.5	1.33472E+000	1.84461E-001	0.00000E+000	1.33635E+000	-9.61214E-005	11	...........	-327.56
	1218	609.5	1.37678E+000	2.72107E-001	0.00000E+000	1.37835E+000	-1.03288E-004	12	...........	-327.56
	1260	630.5	1.41874E+000	3.67130E-001	0.00000E+000	1.42035E+000	-1.01788E-004	12	...........	-327.56
	1302	651.5	1.46066E+000	4.47012E-001	0.00000E+000	1.46235E+000	-1.05421E-004	12	...........	-327.56
	1344	672.5	1.50251E+000	5.50202E-001	0.00000E+000	1.50435E+000	-1.00555E-004	12	...........	-327.56
	1386	693.5	1.54443E+000	6.68923E-001	0.00000E+000	1.54635E+000	-1.04721E-004	12	...........	-327.56
	1428	714.5	1.58628E+000	7.88199E-001	0.00000E+000	1.58835E+000	-9.95214E-005	12	...........	-327.56
	1470	735.5	1.62817E+000	9.01831E-001	0.00000E+000	1.63035E+000	-1.07855E-004	12	...........	-327.56
	1512	756.5	1.67011E+000	1.03407E+000	0.00000E+000	1.67235E+000	-1.03221E-004	12	...........	-327.56
	1554	777.5	1.68400E+000	1.10022E+000	0.00000E+000	1.68635E+000	-1.01955E-004	12	...........	-327.56
	1596	798.5	1.64213E+000	1.00312E+000	0.00000E+000	1.64435E+000	-9.98214E-005	12	...........	-327.56
	1638	819.5	1.60018E+000	9.19726E-001	0.00000E+000	1.60235E+000	-1.01821E-004	12	...........	-327.56
	1680	840.5	1.55832E+000	8.19905E-001	0.00000E+000	1.56035E+000	-9.84214E-005	12	...........	-327.56
	1722	861.5	1.51645E+000	7.28185E-001	0.00000E+000	1.51835E+000	-1.01855E-004	12	...........	-327.56
	1764	882.5	1.47447E+000	6.26228E-001	0.00000E+000	1.47635E+000	-1.02788E-004	12	...........	-327.56
	1806	903.5	1.43260E+000	5.36611E-001	0.00000E+000	1.43435E+000	-1.01755E-004	12	...........	-327.56
	1848	924.5	1.39075E+000	4.43531E-001	0.00000E+000	1.39235E+000	-1.00988E-004	12	...........	-327.56
	1890	945.5	1.34876E+000	3.58336E-001	0.00000E+000	1.35035E+000	-1.05155E-004	12	...........	-327.56
	1932	966.5	1.30693E+000	2.81380E-001	0.00000E+000	1.30835E+000	-1.03855E-004	12	...........	-327.56
	1974	987.5	1.26480E+000	2.02530E-001	0.00000E+000	1.26635E+000	-9.55881E-005	11	...........	-327.56
	2016	1008.5	1.22288E+000	1.33750E-001	0.00000E+000	1.22435E+000	-1.00121E-004	11	...........	-327.56
	2058	1029.5	1.18104E+000	8.45011E-002	0.00000E+000	1.18235E+000	-1.00621E-004	11	...........	-327.56
	2100	1050.5	1.13910E+000	5.21255E-002	0.00000E+000	1.14035E+000	-1.02855E-004	11	...........	-327.56
	2142	1071.5	1.09716E+000	3.02900E-002	0.00000E+000	1.09835E+000	-1.03188E-004	11	...........	-327.56
	2184	1092.5	1.05508E+000	1.83410E-002	0.00000E+000	1.05635E+000	-9.50548E-005	10	...........	-327.56
	2226	1113.5	1.01309E+000	1.41068E-002	0.00000E+000	1.01435E+000	-1.05055E-004	10	...........	-327.56
	2268	1134.5	9.71164E-001	1.24675E-002	0.00000E+000	9.72350E-001	-1.02855E-004	10	...........	-327.56
	2310	1155.5	9.29260E-001	1.13383E-002	0.00000E+000	9.30350E-001	-1.02855E-004	10	...........	-327.56
	2352	1176.5	8.87267E-001	1.07922E-002	0.00000E+000	8.88350E-001	-1.01621E-004	10	...........	-327.56
	2394	1197.5	8.45345E-001	1.02822E-002	0.00000E+000	8.46350E-001	-9.94548E-005	10	...........	-327.56
	2436	1218.5	8.03461E-001	1.03070E-002	0.00000E+000	8.04350E-001	-9.79214E-005	10	...........	-327.56
	2478	1239.5	7.61469E-001	1.06881E-002	0.00000E+000	7.62350E-001	-9.99548E-005	10	...........	-327.56
	2520	1260.5	7.19460E-001	1.06728E-002	0.00000E+000	7.20350E-001	-1.01021E-004	10	...........	-327.56
	2562	1281.5	6.77546E-001	9.91722E-003	0.00000E+000	6.78350E-001	-9.91881E-005	10	...........	-327.56
	2604	1302.5	6.35536E-001	9.55666E-003	0.00000E+000	6.36350E-001	-1.00388E-004	10	...........	-327.56
	2646	1323.5	5.93628E-001	9.08368E-003	0.00000E+000	5.94350E-001	-1.03521E-004	10	...........	-327.56
	2688	1344.5	5.51586E-001	8.47827E-003	0.00000E+000	5.52350E-001	-1.03155E-004	10	...........	-327.56
	2730	1365.5	5.09721E-001	7.23338E-003	0.00000E+000	5.10350E-001	-1.00255E-004	10	...........	-327.56
	2772	1386.5	4.67794E-001	6.72160E-003	0.00000E+000	4.68350E-001	-9.93214E-005	10	...........	-327.56
	2814	1407.5	4.25776E-001	5.26454E-003	0.00000E+000	4.26350E-001	-1.01821E-004	10	...........	-327.56
	2856	1428.5	3.83876E-001	3.47337E-003	0.00000E+000	3.84350E-001	-1.04021E-004	10	...........	-327.56
	2898	1449.5	3.41696E-001	1.98738E-003	0.00000E+000	3.42350E-001	-1.02855E-004	9	...........	-327.56
	2940	1470.5	2.99951E-001	3.09044E-005	0.00000E+000	3.00350E-001	-1.04121E-004	9	...........	-327.56
	2982	1491.5	2.58206E-001	-1.43255E-003	0.00000E+000	2.58350E-001	-1.04188E-004	9	...........	-327.56
	3024	1512.5	2.16254E-001	-1.42624E-003	0.00000E+000	2.16350E-001	-9.79214E-005	9	...........	-327.56
	3066	1533.5	1.74359E-001	-2.36167E-003	0.00000E+000	1.74350E-001	-9.88214E-005	9	...........	-327.56
	3108	1554.5	1.32187E-001	-3.89769E-003	0.00000E+000	1.32350E-001	-1.03621E-004	10	...........	-327.56
	3150	1575.5	9.01936E-002	-5.55381E-003	0.00000E+000	9.03500E-002	-1.02788E-004	10	...........	-327.56
	3192	1596.5	4.82892E-002	-6.69239E-003	0.00000E+000	4.83500E-002	-1.04321E-004	10	...........	-327.56
	3234	1617.5	6.34105E-003	-7.47236E-003	0.00000E+000	6.35001E-003	-1.03388E-004	10	...........	-327.56
	3276	1638.5	-3.54336E-002	-8.29115E-003	0.00000E+000	-3.56500E-002	-1.02555E-004	10	...........	-327.56
	3318	1659.5	-7.73891E-002	-9.20805E-003	0.00000E+000	-7.76500E-002	-1.01221E-004	10	...........	-327.56
	3360	1680.5	-1.19287E-001	-9.11716E-003	0.00000E+000	-1.19650E-001	-1.01621E-004	10	...........	-327.56
	3402	1701.5	-1.61324E-001	-8.46637E-003	0.00000E+000	-1.61650E-001	-1.08755E-004	10	...........	-327.56
	3444	1722.5	-2.03265E-001	-8.48790E-003	0.00000E+000	-2.03650E-001	-1.06155E-004	10	...........	-327.56
	3486	1743.5	-2.45199E-001	-9.47752E-003	0.00000E+000	-2.45650E-001	-1.02455E-004	10	...........	-327.56
	3528	1764.5	-2.87199E-001	-1.20041E-002	0.00000E+000	-2.87650E-001	-1.04455E-004	10	...........	-327.56
	3570	1785.5	-3.28990E-001	-1.78540E-002	0.00000E+000	-3.29650E-001	-1.01155E-004	10	...........	-327.56
	3612	1806.5	-3.71168E-001	-3.13195E-002	0.00000E+000	-3.71650E-001	-1.03855E-004	11	...........	-327.56
	3654	1827.5	-4.13142E-001	-5.40457E-002	0.00000E+000	-4.13650E-001	-1.01755E-004	11	...........	-327.56
	3696	1848.5	-4.54992E-001	-9.32924E-002	0.00000E+000	-4.55650E-001	-1.00088E-004	11	...........	-327.56
	3738	1869.5	-4.96924E-001	-1.66597E-001	0.00000E+000	-4.97650E-001	-9.91214E-005	11	...........	-327.56
	3780	1890.5	-5.38774E-001	-1.99680E-001	0.00000E+000	-5.39650E-001	-9.94881E-005	11	...........	-327.56
	3822	1911.5	-5.80653E-001	-2.21172E-001	0.00000E+000	-5.81650E-001	-9.94214E-005	11	...........	-327.56
	3864	1932.5	-6.22890E-001	-2.80754E-001	0.00000E+000	-6.23650E-001	-9.99214E-005	12	...........	-327.56
	3906	1953.5	-6.64808E-001	-3.35102E-001	0.00000E+000	-6.65650E-001	-1.01588E-004	12	...........	-327.56
	3948	1974.5	-7.06717E-001	-3.64219E-001	0.00000E+000	-7.07650E-001	-1.00888E-004	12	...........	-327.56
	3990	1995.5	-7.48691E-001	-3.84875E-001	0.00000E+000	-7.49650E-001	-1.01088E-004	12	...........	-327.56
	4032	2016.5	-7.90564E-001	-4.55485E-001	0.00000E+000	-7.91650E-001	-1.01955E-004	12	...........	-327.56
	4074	2037.5	-8.32476E-001	-5.46037E-001	0.00000E+000	-8.33650E-001	-1.00388E-004	12	...........	-327.56
	4116	2058.5	-8.74401E-001	-6.46408E-001	0.00000E+000	-8.75650E-001	-1.01788E-004	12	...........	-327.56
	4140	2070.5	-8.98369E-001	-6.89583E-001	0.00000E+000	-8.99650E-001	-1.00621E-004	12	...........	-327.56
CURVE2	TABLE
	Pt	T	Vf	Im	Vu	Sig	Ach	IERange	Over	Temp
	#	s	V vs. Ref.	A	V	V	V	#	bits	deg C
	4141	2071	-8.97677E-001	-6.86991E-001	0.00000E+000	-8.99000E-001	-9.94548E-005	12	...........	-327.56
	4195	2098	-8.43842E-001	-5.12366E-001	0.00000E+000	-8.45000E-001	-1.01221E-004	12	...........	-327.56
	4249	2125	-7.89988E-001	-3.76434E-001	0.00000E+000	-7.91000E-001	-1.01921E-004	12	...........	-327.56
	4303	2152	-7.36077E-001	-2.77202E-001	0.00000E+000	-7.37000E-001	-1.04488E-004	12	...........	-327.56
	4357	2179	-6.82037E-001	-1.71318E-001	0.00000E+000	-6.83000E-001	-9.73214E-005	11	...........	-327.56
	4411	2206	-6.28229E-001	-6.15977E-002	0.00000E+000	-6.29000E-001	-9.70881E-005	11	...........	-327.56
	4465	2233	-5.74482E-001	5.30546E-004	0.00000E+000	-5.75000E-001	-1.05421E-004	9	...........	-327.56
	4519	2260	-5.20542E-001	3.34920E-002	0.00000E+000	-5.21000E-001	-1.09155E-004	11	...........	-327.56
	4573	2287	-4.66631E-001	6.10809E-002	0.00000E+000	-4.67000E-001	-1.05321E-004	11	...........	-327.56
	4627	2314	-4.12727E-001	8.76617E-002	0.00000E+000	-4.13000E-001	-1.04021E-004	11	...........	-327.56
	4681	2341	-3.58635E-001	3.15158E-002	0.00000E+000	-3.59000E-001	-1.03088E-004	11	...........	-327.56
	4735	2368	-3.04698E-001	3.58788E-003	0.00000E+000	-3.05000E-001	-1.04255E-004	10	...........	-327.56
	4789	2395	-2.50436E-001	-1.91965E-003	0.00000E+000	-2.51000E-001	-9.68214E-005	9	...........	-327.56
	4843	2422	-1.96952E-001	1.95700E-003	0.00000E+000	-1.97000E-001	-1.02155E-004	9	...........	-327.56
	4897	2449	-1.42893E-001	9.16656E-003	0.00000E+000	-1.43000E-001	-1.01155E-004	10	...........	-327.56
	4951	2476	-8.92046E-002	2.17138E-002	0.00000E+000	-8.90000E-002	-9.60548E-005	10	...........	-327.56
	5005	2503	-3.50371E-002	6.74165E-002	0.00000E+000	-3.50000E-002	-1.03421E-004	11	...........	-327.56
	5059	2530	1.86228E-002	1.35285E-001	0.00000E+000	1.90000E-002	-1.00555E-004	11	...........	-327.56
	5113	2557	7.24881E-002	2.02463E-001	0.00000E+000	7.30000E-002	-1.03155E-004	11	...........	-327.56
	5167	2584	1.26347E-001	2.47176E-001	0.00000E+000	1.27000E-001	-1.03821E-004	11	...........	-327.56
	5221	2611	1.80298E-001	2.59819E-001	0.00000E+000	1.81000E-001	-1.01021E-004	11	...........	-327.56
	5275	2638	2.34332E-001	2.24309E-001	0.00000E+000	2.35000E-001	-9.83881E-005	11	...........	-327.56
	5329	2665	2.88487E-001	1.12293E-001	0.00000E+000	2.89000E-001	-1.01521E-004	11	...........	-327.56
	5383	2692	3.42405E-001	1.12112E-001	0.00000E+000	3.43000E-001	-1.02288E-004	11	...........	-327.56
	5437	2719	3.96395E-001	9.19041E-002	0.00000E+000	3.97000E-001	-1.01955E-004	11	...........	-327.56
	5491	2746	4.50335E-001	7.22133E-002	0.00000E+000	4.51000E-001	-1.01255E-004	11	...........	-327.56
	5545	2773	5.04340E-001	6.31133E-002	0.00000E+000	5.05000E-001	-1.03688E-004	11	...........	-327.56
	5599	2800	5.58327E-001	5.27725E-002	0.00000E+000	5.59000E-001	-1.02988E-004	11	...........	-327.56
	5653	2827	6.12269E-001	4.88162E-002	0.00000E+000	6.13000E-001	-1.04921E-004	11	...........	-327.56
	5707	2854	6.66231E-001	4.62525E-002	0.00000E+000	6.67000E-001	-1.04055E-004	11	...........	-327.56
	5761	2881	7.20185E-001	4.48834E-002	0.00000E+000	7.21000E-001	-1.04221E-004	11	...........	-327.56
	5815	2908	7.74170E-001	4.35388E-002	0.00000E+000	7.75000E-001	-1.01755E-004	11	...........	-327.56
	5869	2935	8.28088E-001	4.12929E-002	0.00000E+000	8.29000E-001	-1.06321E-004	11	...........	-327.56
	5923	2962	8.82078E-001	3.79688E-002	0.00000E+000	8.83000E-001	-1.04388E-004	11	...........	-327.56
	5977	2989	9.35941E-001	3.50902E-002	0.00000E+000	9.37000E-001	-1.07521E-004	11	...........	-327.56
	6031	3016	9.89888E-001	3.56803E-002	0.00000E+000	9.91000E-001	-1.01988E-004	11	...........	-327.56
	6085	3043	1.04383E+000	4.17497E-002	0.00000E+000	1.04500E+000	-1.04055E-004	11	...........	-327.56
	6139	3070	1.09780E+000	5.10870E-002	0.00000E+000	1.09900E+000	-1.07355E-004	11	...........	-327.56
	6193	3097	1.15171E+000	5.63553E-002	0.00000E+000	1.15300E+000	-1.07021E-004	11	...........	-327.56
	6247	3124	1.20574E+000	4.95015E-002	0.00000E+000	1.20700E+000	-1.08788E-004	11	...........	-327.56
	6301	3151	1.25964E+000	7.97493E-002	0.00000E+000	1.26100E+000	-1.04688E-004	11	...........	-327.56
	6355	3178	1.31351E+000	1.54124E-001	0.00000E+000	1.31500E+000	-1.01288E-004	11	...........	-327.56
	6409	3205	1.36725E+000	2.53730E-001	0.00000E+000	1.36900E+000	-1.01721E-004	11	...........	-327.56
[...]
	9719	4860	-5.20630E-001	1.22844E-002	0.00000E+000	-5.21000E-001	-1.05388E-004	10	...........	-327.56
	9746	4873.5	-4.93814E-001	2.20786E-002	0.00000E+000	-4.94000E-001	-1.00755E-004	10	...........	-327.56
	9773	4887	-4.66591E-001	3.04288E-002	0.00000E+000	-4.67000E-001	-1.03855E-004	11	...........	-327.56
	9800	4900.5	-4.39624E-001	3.40419E-002	0.00000E+000	-4.40000E-001	-1.08221E-004	11	...........	-327.56
	9827	4914	-4.12873E-001	2.35665E-002	0.00000E+000	-4.13000E-001	-1.04821E-004	10	...........	-327.56
	9854	4927.5	-3.85751E-001	1.50555E-002	0.00000E+000	-3.86000E-001	-1.06488E-004	10	...........	-327.56
	9881	4941	-3.58656E-001	5.91147E-003	0.00000E+000	-3.59000E-001	-1.04955E-004	10	...........	-327.56
	9908	4954.5	-3.31332E-001	-1.82733E-004	0.00000E+000	-3.32000E-001	-9.94214E-005	8	...........	-327.56
	9935	4968	-3.04583E-001	-3.33836E-003	0.00000E+000	-3.05000E-001	-1.04955E-004	10	...........	-327.56
	9962	4981.5	-2.77595E-001	-4.39305E-003	0.00000E+000	-2.78000E-001	-1.05188E-004	10	...........	-327.56
	9989	4995	-2.50600E-001	-4.46475E-003	0.00000E+000	-2.51000E-001	-1.04388E-004	10	...........	-327.56
	10016	5008.5	-2.23639E-001	-2.89959E-003	0.00000E+000	-2.24000E-001	-1.00621E-004	10	...........	-327.56
	10043	5022	-1.97088E-001	2.95620E-004	0.00000E+000	-1.97000E-001	-9.50214E-005	8	...........	-327.56
	10070	5035.5	-1.69756E-001	3.30039E-003	0.00000E+000	-1.70000E-001	-1.06688E-004	10	...........	-327.56
	10097	5049	-1.42852E-001	6.89969E-003	0.00000E+000	-1.43000E-001	-1.06655E-004	10	...........	-327.56
	10124	5062.5	-1.15923E-001	1.22015E-002	0.00000E+000	-1.16000E-001	-1.05621E-004	10	...........	-327.56
	10151	5076	-8.91619E-002	1.89579E-002	0.00000E+000	-8.90000E-002	-1.01788E-004	10	...........	-327.56
	10178	5089.5	-6.19827E-002	3.21109E-002	0.00000E+000	-6.20000E-002	-1.07955E-004	11	...........	-327.56
	10205	5103	-3.50259E-002	6.17525E-002	0.00000E+000	-3.50000E-002	-1.07621E-004	11	...........	-327.56
	10232	5116.5	-8.08503E-003	1.12138E-001	0.00000E+000	-7.99999E-003	-1.05855E-004	11	...........	-327.56
	10259	5130	1.85911E-002	1.52407E-001	0.00000E+000	1.90000E-002	-1.08021E-004	11	...........	-327.56
	10286	5143.5	4.55249E-002	1.85902E-001	0.00000E+000	4.60000E-002	-9.99548E-005	11	...........	-327.56
	10313	5157	7.24846E-002	2.07276E-001	0.00000E+000	7.30000E-002	-1.04955E-004	11	...........	-327.56
	10340	5170.5	9.94551E-002	2.18102E-001	0.00000E+000	1.00000E-001	-1.01621E-004	11	...........	-327.56
	10367	5184	1.26385E-001	2.20200E-001	0.00000E+000	1.27000E-001	-1.06721E-004	11	...........	-327.56
	10394	5197.5	1.53450E-001	1.97851E-001	0.00000E+000	1.54000E-001	-1.01888E-004	11	...........	-327.56
	10421	5211	1.80438E-001	1.72750E-001	0.00000E+000	1.81000E-001	-1.07588E-004	11	...........	-327.56
	10448	5224.5	2.07481E-001	1.35796E-001	0.00000E+000	2.08000E-001	-1.02021E-004	11	...........	-327.56
	10475	5238	2.34550E-001	9.41405E-002	0.00000E+000	2.35000E-001	-1.04855E-004	11	...........	-327.56
	10502	5251.5	2.61525E-001	9.47262E-002	0.00000E+000	2.62000E-001	-1.03488E-004	11	...........	-327.56
	10529	5265	2.88527E-001	9.01749E-002	0.00000E+000	2.89000E-001	-1.01121E-004	11	...........	-327.56
	10556	5278.5	3.15471E-001	9.23901E-002	0.00000E+000	3.16000E-001	-1.03088E-004	11	...........	-327.56
	10583	5292	3.42430E-001	9.87220E-002	0.00000E+000	3.43000E-001	-1.07688E-004	11	...........	-327.56
	10610	5305.5	3.69419E-001	1.04663E-001	0.00000E+000	3.70000E-001	-1.03488E-004	11	...........	-327.56
	10637	5319	3.96412E-001	8.34043E-002	0.00000E+000	3.97000E-001	-1.06188E-004	11	...........	-327.56
	10664	5332.5	4.23357E-001	6.62405E-002	0.00000E+000	4.24000E-001	-1.03588E-004	11	...........	-327.56
	10691	5346	4.50348E-001	6.32513E-002	0.00000E+000	4.51000E-001	-1.03521E-004	11	...........	-327.56
	10718	5359.5	4.77345E-001	6.05422E-002	0.00000E+000	4.78000E-001	-1.04088E-004	11	...........	-327.56
	10745	5373	5.04347E-001	5.61507E-002	0.00000E+000	5.05000E-001	-1.07588E-004	11	...........	-327.56
	10772	5386.5	5.31313E-001	5.18944E-002	0.00000E+000	5.32000E-001	-1.06055E-004	11	...........	-327.56
	10799	5400	5.58333E-001	4.79536E-002	0.00000E+000	5.59000E-001	-1.07655E-004	11	...........	-327.56
	10826	5413.5	5.85296E-001	4.61148E-002	0.00000E+000	5.86000E-001	-1.11521E-004	11	...........	-327.56
	10853	5427	6.12275E-001	4.41750E-002	0.00000E+000	6.13000E-001	-1.08188E-004	11	...........	-327.56
	10880	5440.5	6.39238E-001	4.31329E-002	0.00000E+000	6.40000E-001	-1.04355E-004	11	...........	-327.56
	10907	5454	6.66247E-001	4.19193E-002	0.00000E+000	6.67000E-001	-1.03888E-004	11	...........	-327.56
	10934	5467.5	6.93240E-001	4.11322E-002	0.00000E+000	6.94000E-001	-1.06855E-004	11	...........	-327.56
	10961	5481	7.20193E-001	4.03890E-002	0.00000E+000	7.21000E-001	-1.05321E-004	11	...........	-327.56
	10988	5494.5	7.47166E-001	4.01063E-002	0.00000E+000	7.48000E-001	-1.04721E-004	11	...........	-327.56
	11015	5508	7.74181E-001	3.95670E-002	0.00000E+000	7.75000E-001	-1.02121E-004	11	...........	-327.56
	11042	5521.5	8.01145E-001	3.88185E-002	0.00000E+000	8.02000E-001	-1.08688E-004	11	...........	-327.56
	11069	5535	8.28092E-001	3.79699E-002	0.00000E+000	8.29000E-001	-1.09921E-004	11	...........	-327.56
	11096	5548.5	8.55082E-001	3.66273E-002	0.00000E+000	8.56000E-001	-1.02521E-004	11	...........	-327.56
	11123	5562	8.82075E-001	3.51380E-002	0.00000E+000	8.83000E-001	-1.02621E-004	11	...........	-327.56
	11150	5575.5	9.08981E-001	3.36190E-002	0.00000E+000	9.10000E-001	-1.06488E-004	11	...........	-327.56
	11177	5589	9.35940E-001	3.21621E-002	0.00000E+000	9.37000E-001	-1.05855E-004	11	...........	-327.56
	11204	5602.5	9.62974E-001	3.16907E-002	0.00000E+000	9.64000E-001	-1.08755E-004	11	...........	-327.56
	11231	5616	9.89903E-001	3.21653E-002	0.00000E+000	9.91000E-001	-1.06255E-004	11	...........	-327.56
	11258	5629.5	1.01688E+000	3.50245E-002	0.00000E+000	1.01800E+000	-1.04455E-004	11	...........	-327.56
	11285	5643	1.04384E+000	3.87531E-002	0.00000E+000	1.04500E+000	-1.00155E-004	11	...........	-327.56
	11312	5656.5	1.07083E+000	4.33025E-002	0.00000E+000	1.07200E+000	-1.06955E-004	11	...........	-327.56
	11339	5670	1.09782E+000	4.73615E-002	0.00000E+000	1.09900E+000	-1.02188E-004	11	...........	-327.56
	11366	5683.5	1.12477E+000	5.09208E-002	0.00000E+000	1.12600E+000	-1.03655E-004	11	...........	-327.56
	11393	5697	1.15174E+000	5.31493E-002	0.00000E+000	1.15300E+000	-1.04321E-004	11	...........	-327.56
	11420	5710.5	1.17873E+000	4.90644E-002	0.00000E+000	1.18000E+000	-1.06155E-004	11	...........	-327.56
	11447	5724	1.20574E+000	4.30894E-002	0.00000E+000	1.20700E+000	-1.12655E-004	11	...........	-327.56
	11474	5737.5	1.23271E+000	5.05977E-002	0.00000E+000	1.23400E+000	-1.00955E-004	11	...........	-327.56
	11501	5751	1.25966E+000	7.21350E-002	0.00000E+000	1.26100E+000	-1.04188E-004	11	...........	-327.56
	11528	5764.5	1.28659E+000	1.05867E-001	0.00000E+000	1.28800E+000	-1.04821E-004	11	...........	-327.56
	11555	5778	1.31352E+000	1.44712E-001	0.00000E+000	1.31500E+000	-1.05121E-004	11	...........	-327.56
	11582	5791.5	1.34037E+000	1.89384E-001	0.00000E+000	1.34200E+000	-1.03221E-004	11	...........	-327.56
	11609	5805	1.36726E+000	2.39926E-001	0.00000E+000	1.36900E+000	-1.00921E-004	11	...........	-327.56
	11636	5818.5	1.39447E+000	2.91032E-001	0.00000E+000	1.39600E+000	-1.06755E-004	12	...........	-327.56
	11663	5832	1.42135E+000	3.42518E-001	0.00000E+000	1.42300E+000	-1.02155E-004	12	...........	-327.56
	11690	5845.5	1.44827E+000	3.96573E-001	0.00000E+000	1.45000E+000	-1.07355E-004	12	...........	-327.56
	11717	5859	1.47521E+000	4.56157E-001	0.00000E+000	1.47700E+000	-1.03055E-004	12	...........	-327.56
	11744	5872.5	1.50225E+000	5.25139E-001	0.00000E+000	1.50400E+000	-1.07421E-004	12	...........	-327.56
	11771	5886	1.52913E+000	6.00434E-001	0.00000E+000	1.53100E+000	-1.03921E-004	12	...........	-327.56
	11798	5899.5	1.55599E+000	6.80798E-001	0.00000E+000	1.55800E+000	-1.04388E-004	12	...........	-327.56
	11825	5913	1.58297E+000	7.61667E-001	0.00000E+000	1.58500E+000	-1.02888E-004	12	...........	-327.56
	11852	5926.5	1.60990E+000	8.29022E-001	0.00000E+000	1.61200E+000	-1.06288E-004	12	...........	-327.56
	11879	5940	1.63681E+000	9.04954E-001	0.00000E+000	1.63900E+000	-1.06255E-004	12	...........	-327.56
	11906	5953.5	1.66377E+000	9.70624E-001	0.00000E+000	1.66600E+000	-1.01588E-004	12	...........	-327.56
	11933	5967	1.69072E+000	1.05530E+000	0.00000E+000	1.69300E+000	-1.02921E-004	12	...........	-327.56
	11940	5970.5	1.69772E+000	1.07313E+000	0.00000E+000	1.70000E+000	-1.08921E-004	12	...........	-327.56