File: testing/data/240902_13_MCL13_cswWE_CV1_750C_CO2.DTA
EXPLAIN
TAG	CV
TITLE	LABEL	Cyclic Voltammetry	Test Identifier
DATE	LABEL	9/3/2024	Date
TIME	LABEL	8:08:38	Time
NOTES	NOTES	5	Notes...
	cswWE - carbon steel wire
cspWE - carbon steel plate 2x2 tapered

Carbon steel plate counter electrode
Carbon steel wire reference electrode
PSTAT	PSTAT	REF3000-48128	Potentiostat
VINIT	POTEN	0.00000E+000	T	Initial E (V)
VLIMIT1	POTEN	1.70000E+000	F	Scan Limit 1 (V)
VLIMIT2	POTEN	-1.00000E+000	F	Scan Limit 2 (V)
VFINAL	POTEN	1.70000E+000	F	Final E (V)
SCANRATE	QUANT	9.99998E-001	Scan Rate (mV/s)
STEPSIZE	QUANT	1.00000E+000	Step Size (mV)
CYCLES	IQUANT	2	Cycles (#)
IMODE	SELECTOR	0	I/E Range Mode
IRANGE	QUANT	3.00000E-001	Max Current (mA)
AREA	QUANT	1.00000E+000	Sample Area (cm^2)
EQDELAY	QUANT	0.00000E+000	Equil. Time (s)
IRCOMP	SELECTOR	0	IRComp
PFCOR	QUANT	5.00000E+001	PF Corr. (ohm)
SAMPLINGMODE	SELECTOR	1	Sampling Mode
EOC	QUANT	0.5911781	Open Circuit (V)
ELECTRODETYPE	SELECTOR	0	Electrode Type
STRIPPING	TOGGLE	F	Used for Stripping
SEQUENCER	TOGGLE	TRUE	Run as Sequence
PSTATMODEL	IQUANT	5	Pstat Model
PSTATSECTION	LABEL	REF3000-48128	Pstat Section
PSTATSERIALNO	LABEL	48128	Pstat Serial Number
CTRLMODE	IQUANT	1	Control Mode
ELECTROMETER	IQUANT	0	RE=0 or CS=1
IESTAB	IQUANT	2	I/E Stability
CASPEED	IQUANT	4	Control Amp Speed
CONVENTION	IQUANT	1	Current Convention
ICHRANGE	IQUANT	2	Ich Range
ICHRANGEMODE	TOGGLE	F	Ich Auto Range
ICHOFFSETENABLE	TOGGLE	F	Ich Offset Enable
ICHOFFSET	QUANT	0	Ich Offset (V)
ICHFILTER	IQUANT	3	Ich Filter
VCHRANGE	IQUANT	2	Vch Range
VCHRANGEMODE	TOGGLE	F	Vch Auto Range
VCHOFFSETENABLE	TOGGLE	F	Vch Offset Enable
VCHOFFSET	QUANT	0	Vch Offset (V)
VCHFILTER	IQUANT	3	Vch Filter
ACHRANGE	IQUANT	2	Ach Range
ACHOFFSETENABLE	TOGGLE	F	Ach Offset Enable
ACHOFFSET	QUANT	0	Ach Offset (V)
ACHFILTER	IQUANT	1	Ach Filter
IERANGELOWERLIMIT	IQUANT	2	I/E Range Lower Limit
IERANGEMODE	TOGGLE	T	I/E AutoRange
IERANGE	IQUANT	9	I/E Range
POSFEEDENABLE	TOGGLE	F	Positive Feedback IR Comp
POSFEEDRESISTANCE	QUANT	0	Positive Feedback Resistance (ohm)
ACHSELECT	IQUANT	4	Ach Select
SENSECABLEID	IQUANT	14	Sense Cable ID
PWRCABLEID	IQUANT	7	Power Cable ID
DCCALDATE	LABEL	8/16/2024	DC Calibration Date
ACCALDATE	LABEL	8/16/2024	AC Calibration Date
THERMOSELECT	IQUANT	1	Thermo Select
FRAMEWORKVERSION	LABEL	7.10.3	Framework Version
INSTRUMENTVERSION	LABEL	4.91	Instrument Version
COMMVERSION	LABEL	5.10	Communications Version
CPUPLDVERSION	LABEL	6.00	CPU PLD Version
CTRLPLDVERSION	LABEL	3.21	CTRL PLD Version
PSTATPLDVERSION	LABEL	0.00	PSTAT PLD Version
COMPLIANCEVOLTAGE	IQUANT	0	Compliance Voltage
CURVE1	TABLE
	Pt	T	Vf	Im	Vu	Sig	Ach	IERange	Over	Temp
	#	s	V vs. Ref.	A	V	V	V	#	bits	deg C
	0	1	5.90532E-001	4.90732E-004	0.00000E+000	5.91200E-001	-9.60881E-005	9	...........	-327.56
	39	40	6.29430E-001	3.84629E-003	0.00000E+000	6.30200E-001	-1.06788E-004	10	...........	-327.56
	78	79	6.68454E-001	4.74548E-003	0.00000E+000	6.69200E-001	-1.03971E-004	10	...........	-327.56
	117	118	7.07378E-001	4.89469E-003	0.00000E+000	7.08200E-001	-1.04238E-004	10	...........	-327.56
	156	157	7.46379E-001	5.06098E-003	0.00000E+000	7.47200E-001	-1.02455E-004	10	...........	-327.56
	195	196	7.85306E-001	5.08362E-003	0.00000E+000	7.86200E-001	-1.06305E-004	10	...........	-327.56
	234	235	8.24296E-001	4.91170E-003	0.00000E+000	8.25200E-001	-1.01788E-004	10	...........	-327.56
	273	274	8.63200E-001	4.98373E-003	0.00000E+000	8.64200E-001	-1.05221E-004	10	...........	-327.56
	312	313	9.02261E-001	5.20962E-003	0.00000E+000	9.03200E-001	-1.04688E-004	10	...........	-327.56
	351	352	9.41117E-001	5.80546E-003	0.00000E+000	9.42200E-001	-1.01005E-004	10	...........	-327.56
	390	391	9.80104E-001	8.63179E-003	0.00000E+000	9.81200E-001	-1.05521E-004	10	...........	-327.56
	429	430	1.01896E+000	1.59240E-002	0.00000E+000	1.02020E+000	-1.05555E-004	10	...........	-327.56
	468	469	1.05812E+000	2.90776E-002	0.00000E+000	1.05920E+000	-1.05305E-004	11	...........	-327.56
	507	508	1.09701E+000	4.79128E-002	0.00000E+000	1.09820E+000	-1.06588E-004	11	...........	-327.56
	546	547	1.13594E+000	7.28790E-002	0.00000E+000	1.13720E+000	-1.05805E-004	11	...........	-327.56
	585	586	1.17481E+000	1.05088E-001	0.00000E+000	1.17620E+000	-1.05005E-004	11	...........	-327.56
	624	625	1.21375E+000	1.53914E-001	0.00000E+000	1.21520E+000	-1.02488E-004	11	...........	-327.56
	663	664	1.25263E+000	2.18767E-001	0.00000E+000	1.25420E+000	-1.03788E-004	11	...........	-327.56
	702	703	1.29181E+000	2.91277E-001	0.00000E+000	1.29320E+000	-1.02221E-004	12	...........	-327.56
	741	742	1.33068E+000	3.68732E-001	0.00000E+000	1.33220E+000	-1.03488E-004	12	...........	-327.56
	780	781	1.36959E+000	4.47703E-001	0.00000E+000	1.37120E+000	-1.04205E-004	12	...........	-327.56
	819	820	1.40849E+000	5.31684E-001	0.00000E+000	1.41020E+000	-1.03621E-004	12	...........	-327.56
	858	859	1.44733E+000	6.08703E-001	0.00000E+000	1.44920E+000	-1.08855E-004	12	...........	-327.56
	897	898	1.48634E+000	6.84300E-001	0.00000E+000	1.48820E+000	-1.07488E-004	12	...........	-327.56
	936	937	1.52520E+000	7.62355E-001	0.00000E+000	1.52720E+000	-1.05488E-004	12	...........	-327.56
	975	976	1.56417E+000	8.41166E-001	0.00000E+000	1.56620E+000	-1.05805E-004	12	...........	-327.56
	1014	1015	1.60310E+000	9.14429E-001	0.00000E+000	1.60520E+000	-1.02971E-004	12	...........	-327.56
	1053	1054	1.64200E+000	9.96141E-001	0.00000E+000	1.64420E+000	-1.00671E-004	12	...........	-327.56
	1092	1093	1.68089E+000	1.06380E+000	0.00000E+000	1.68320E+000	-1.04621E-004	12	...........	-327.56
	1131	1132	1.67593E+000	1.06139E+000	0.00000E+000	1.67820E+000	-1.03705E-004	12	...........	-327.56
	1170	1171	1.63700E+000	9.90139E-001	0.00000E+000	1.63920E+000	-1.06221E-004	12	...........	-327.56
	1209	1210	1.59809E+000	9.09262E-001	0.00000E+000	1.60020E+000	-1.01455E-004	12	...........	-327.56
	1248	1249	1.55911E+000	8.36051E-001	0.00000E+000	1.56120E+000	-1.00338E-004	12	...........	-327.56
	1287	1288	1.52030E+000	7.48214E-001	0.00000E+000	1.52220E+000	-1.01488E-004	12	...........	-327.56
	1326	1327	1.48134E+000	6.66904E-001	0.00000E+000	1.48320E+000	-1.02071E-004	12	...........	-327.56
	1365	1366	1.44243E+000	5.88348E-001	0.00000E+000	1.44420E+000	-1.04971E-004	12	...........	-327.56
	1404	1405	1.40347E+000	5.13154E-001	0.00000E+000	1.40520E+000	-1.02938E-004	12	...........	-327.56
	1443	1444	1.36461E+000	4.39536E-001	0.00000E+000	1.36620E+000	-1.04338E-004	12	...........	-327.56
	1482	1483	1.32565E+000	3.71267E-001	0.00000E+000	1.32720E+000	-1.08338E-004	12	...........	-327.56
	1521	1522	1.28677E+000	3.05227E-001	0.00000E+000	1.28820E+000	-1.01888E-004	12	...........	-327.56
	1560	1561	1.24783E+000	2.45908E-001	0.00000E+000	1.24920E+000	-1.02088E-004	12	...........	-327.56
	1599	1600	1.20869E+000	1.88748E-001	0.00000E+000	1.21020E+000	-9.91048E-005	11	...........	-327.56
	1638	1639	1.16974E+000	1.41599E-001	0.00000E+000	1.17120E+000	-1.03288E-004	11	...........	-327.56
	1677	1678	1.13089E+000	9.91086E-002	0.00000E+000	1.13220E+000	-1.03338E-004	11	...........	-327.56
	1716	1717	1.09195E+000	6.41321E-002	0.00000E+000	1.09320E+000	-9.98548E-005	11	...........	-327.56
	1755	1756	1.05309E+000	3.75207E-002	0.00000E+000	1.05420E+000	-1.00438E-004	11	...........	-327.56
	1794	1795	1.01387E+000	1.89558E-002	0.00000E+000	1.01520E+000	-1.00021E-004	10	...........	-327.56
	1833	1834	9.75106E-001	7.51975E-003	0.00000E+000	9.76200E-001	-9.89048E-005	10	...........	-327.56
	1872	1873	9.36104E-001	4.08053E-003	0.00000E+000	9.37200E-001	-1.03638E-004	10	...........	-327.56
	1911	1912	8.97237E-001	3.47967E-003	0.00000E+000	8.98200E-001	-1.03721E-004	10	...........	-327.56
	1950	1951	8.58214E-001	2.94491E-003	0.00000E+000	8.59200E-001	-9.97214E-005	10	...........	-327.56
	1989	1990	8.19298E-001	2.79399E-003	0.00000E+000	8.20200E-001	-1.02288E-004	10	...........	-327.56
	2028	2029	7.80360E-001	2.87181E-003	0.00000E+000	7.81200E-001	-1.00571E-004	10	...........	-327.56
	2067	2068	7.41377E-001	2.68432E-003	0.00000E+000	7.42200E-001	-1.03105E-004	10	...........	-327.56
	2106	2107	7.02490E-001	2.51032E-003	0.00000E+000	7.03200E-001	-1.02588E-004	10	...........	-327.56
	2145	2146	6.63201E-001	2.29049E-003	0.00000E+000	6.64200E-001	-9.95048E-005	9	...........	-327.56
	2184	2185	6.24321E-001	1.91818E-003	0.00000E+000	6.25200E-001	-1.01188E-004	9	...........	-327.56
	2223	2224	5.85435E-001	1.22459E-003	0.00000E+000	5.86200E-001	-1.03305E-004	9	...........	-327.56
	2262	2263	5.46562E-001	5.53128E-004	0.00000E+000	5.47200E-001	-1.07355E-004	9	...........	-327.56
	2301	2302	5.07735E-001	-6.70980E-004	0.00000E+000	5.08200E-001	-1.07305E-004	9	...........	-327.56
	2340	2341	4.68955E-001	-1.93224E-003	0.00000E+000	4.69200E-001	-1.02655E-004	9	...........	-327.56
	2379	2380	4.29742E-001	-3.22017E-003	0.00000E+000	4.30200E-001	-1.04388E-004	10	...........	-327.56
	2418	2419	3.90801E-001	-4.14945E-003	0.00000E+000	3.91200E-001	-1.03738E-004	10	...........	-327.56
	2457	2458	3.51834E-001	-4.97188E-003	0.00000E+000	3.52200E-001	-1.08855E-004	10	...........	-327.56
	2496	2497	3.12874E-001	-5.56248E-003	0.00000E+000	3.13200E-001	-1.08038E-004	10	...........	-327.56
	2535	2536	2.73883E-001	-6.39922E-003	0.00000E+000	2.74200E-001	-1.05821E-004	10	...........	-327.56
	2574	2575	2.34998E-001	-7.43610E-003	0.00000E+000	2.35200E-001	-1.07255E-004	10	...........	-327.56
	2613	2614	1.95981E-001	-9.07479E-003	0.00000E+000	1.96200E-001	-1.04205E-004	10	...........	-327.56
	2652	2653	1.57056E-001	-8.61413E-003	0.00000E+000	1.57200E-001	-1.04788E-004	10	...........	-327.56
	2691	2692	1.17977E-001	-5.86662E-003	0.00000E+000	1.18200E-001	-1.05688E-004	10	...........	-327.56
	2730	2731	7.90918E-002	-4.28603E-003	0.00000E+000	7.92000E-002	-1.03371E-004	10	...........	-327.56
	2769	2770	4.00179E-002	-3.56012E-003	0.00000E+000	4.02000E-002	-1.09805E-004	10	...........	-327.56
	2808	2809	1.11139E-003	-3.34969E-003	0.00000E+000	1.20002E-003	-1.06905E-004	10	...........	-327.56
	2847	2848	-3.77320E-002	-3.37543E-003	0.00000E+000	-3.78000E-002	-1.05138E-004	10	...........	-327.56
	2886	2887	-7.66277E-002	-3.49898E-003	0.00000E+000	-7.68000E-002	-1.05538E-004	10	...........	-327.56
	2925	2926	-1.15542E-001	-3.62300E-003	0.00000E+000	-1.15800E-001	-1.05555E-004	10	...........	-327.56
	2964	2965	-1.54544E-001	-3.93789E-003	0.00000E+000	-1.54800E-001	-1.02838E-004	10	...........	-327.56
	3003	3004	-1.93472E-001	-4.51602E-003	0.00000E+000	-1.93800E-001	-1.06805E-004	10	...........	-327.56
	3042	3043	-2.32485E-001	-5.41810E-003	0.00000E+000	-2.32800E-001	-1.06305E-004	10	...........	-327.56
	3081	3082	-2.71365E-001	-6.82545E-003	0.00000E+000	-2.71800E-001	-1.00721E-004	10	...........	-327.56
	3120	3121	-3.10347E-001	-8.85307E-003	0.00000E+000	-3.10800E-001	-1.04838E-004	10	...........	-327.56
	3159	3160	-3.49243E-001	-1.22423E-002	0.00000E+000	-3.49800E-001	-1.07155E-004	10	...........	-327.56
	3198	3199	-3.88163E-001	-1.87825E-002	0.00000E+000	-3.88800E-001	-1.00205E-004	10	...........	-327.56
	3237	3238	-4.27287E-001	-3.07573E-002	0.00000E+000	-4.27800E-001	-1.08688E-004	11	...........	-327.56
	3276	3277	-4.66279E-001	-4.85230E-002	0.00000E+000	-4.66800E-001	-1.08155E-004	11	...........	-327.56
	3315	3316	-5.05159E-001	-7.74093E-002	0.00000E+000	-5.05800E-001	-1.00921E-004	11	...........	-327.56
	3354	3355	-5.44070E-001	-1.19776E-001	0.00000E+000	-5.44800E-001	-1.04538E-004	11	...........	-327.56
	3393	3394	-5.82929E-001	-1.75661E-001	0.00000E+000	-5.83800E-001	-1.01388E-004	11	...........	-327.56
	3432	3433	-6.21795E-001	-2.53657E-001	0.00000E+000	-6.22800E-001	-9.90381E-005	11	...........	-327.56
	3471	3472	-6.60984E-001	-2.72072E-001	0.00000E+000	-6.61800E-001	-1.06905E-004	12	...........	-327.56
	3510	3511	-7.00033E-001	-2.67772E-001	0.00000E+000	-7.00800E-001	-1.03121E-004	12	...........	-327.56
	3549	3550	-7.38891E-001	-2.88029E-001	0.00000E+000	-7.39800E-001	-1.02305E-004	12	...........	-327.56
	3588	3589	-7.77912E-001	-3.07750E-001	0.00000E+000	-7.78800E-001	-1.05188E-004	12	...........	-327.56
	3627	3628	-8.16805E-001	-3.75360E-001	0.00000E+000	-8.17800E-001	-1.05571E-004	12	...........	-327.56
	3666	3667	-8.55747E-001	-4.58847E-001	0.00000E+000	-8.56800E-001	-1.09371E-004	12	...........	-327.56
	3705	3706	-8.94589E-001	-5.49492E-001	0.00000E+000	-8.95800E-001	-1.04638E-004	12	...........	-327.56
	3744	3745	-9.33597E-001	-6.13288E-001	0.00000E+000	-9.34800E-001	-1.08388E-004	12	...........	-327.56
	3783	3784	-9.72513E-001	-5.94294E-001	0.00000E+000	-9.73800E-001	-1.05055E-004	12	...........	-327.56
	3809	3810	-9.98471E-001	-6.04968E-001	0.00000E+000	-9.99800E-001	-1.07105E-004	12	...........	-327.56
CURVE2	TABLE
	Pt	T	Vf	Im	Vu	Sig	Ach	IERange	Over	Temp
	#	s	V vs. Ref.	A	V	V	V	#	bits	deg C
	3810	3811	-9.97681E-001	-6.02513E-001	0.00000E+000	-9.99000E-001	-1.03971E-004	12	...........	-327.56
	3865	3866	-9.42785E-001	-4.72755E-001	0.00000E+000	-9.44000E-001	-1.06138E-004	12	...........	-327.56
	3920	3921	-8.87928E-001	-3.59109E-001	0.00000E+000	-8.89000E-001	-1.08771E-004	12	...........	-327.56
	3975	3976	-8.32999E-001	-2.61153E-001	0.00000E+000	-8.34000E-001	-1.04255E-004	12	...........	-327.56
	4030	4031	-7.78008E-001	-1.89577E-001	0.00000E+000	-7.79000E-001	-1.01155E-004	11	...........	-327.56
	4085	4086	-7.23094E-001	-1.32146E-001	0.00000E+000	-7.24000E-001	-1.06555E-004	11	...........	-327.56
	4140	4141	-6.68292E-001	-4.84156E-002	0.00000E+000	-6.69000E-001	-1.06671E-004	11	...........	-327.56
	4195	4196	-6.13510E-001	5.18332E-002	0.00000E+000	-6.14000E-001	-1.04471E-004	11	...........	-327.56
	4250	4251	-5.58679E-001	1.51439E-001	0.00000E+000	-5.59000E-001	-1.05238E-004	11	...........	-327.56
	4305	4306	-5.03743E-001	1.53774E-001	0.00000E+000	-5.04000E-001	-1.03088E-004	11	...........	-327.56
	4360	4361	-4.48817E-001	1.56708E-001	0.00000E+000	-4.49000E-001	-1.05338E-004	11	...........	-327.56
	4415	4416	-3.93965E-001	1.93666E-001	0.00000E+000	-3.94000E-001	-1.04805E-004	11	...........	-327.56
	4470	4471	-3.39057E-001	2.48460E-001	0.00000E+000	-3.39000E-001	-1.04005E-004	11	...........	-327.56
	4525	4526	-2.83940E-001	1.30770E-001	0.00000E+000	-2.84000E-001	-1.08221E-004	11	...........	-327.56
	4580	4581	-2.28833E-001	6.76448E-002	0.00000E+000	-2.29000E-001	-1.05888E-004	11	...........	-327.56
	4635	4636	-1.74044E-001	2.22980E-002	0.00000E+000	-1.74000E-001	-1.02121E-004	10	...........	-327.56
	4690	4691	-1.18853E-001	2.77575E-002	0.00000E+000	-1.19000E-001	-1.05755E-004	11	...........	-327.56
	4745	4746	-6.39683E-002	5.04070E-002	0.00000E+000	-6.40000E-002	-1.07871E-004	11	...........	-327.56
	4800	4801	-9.10853E-003	8.56577E-002	0.00000E+000	-8.99997E-003	-1.09188E-004	11	...........	-327.56
	4855	4856	4.56485E-002	9.68182E-002	0.00000E+000	4.60000E-002	-1.10571E-004	11	...........	-327.56
	4910	4911	1.00718E-001	6.37437E-002	0.00000E+000	1.01000E-001	-1.09638E-004	11	...........	-327.56
	4965	4966	1.55614E-001	6.65675E-002	0.00000E+000	1.56000E-001	-1.06405E-004	11	...........	-327.56
	5020	5021	2.10594E-001	6.72492E-002	0.00000E+000	2.11000E-001	-1.09288E-004	11	...........	-327.56
	5075	5076	2.65549E-001	7.34401E-002	0.00000E+000	2.66000E-001	-1.07938E-004	11	...........	-327.56
	5130	5131	3.20382E-001	7.46906E-002	0.00000E+000	3.21000E-001	-1.05821E-004	11	...........	-327.56
	5185	5186	3.75400E-001	5.35301E-002	0.00000E+000	3.76000E-001	-1.08721E-004	11	...........	-327.56
	5240	5241	4.30442E-001	3.85687E-002	0.00000E+000	4.31000E-001	-1.12288E-004	11	...........	-327.56
	5295	5296	4.85406E-001	2.95692E-002	0.00000E+000	4.86000E-001	-1.04888E-004	11	...........	-327.56
	5350	5351	5.40362E-001	2.61927E-002	0.00000E+000	5.41000E-001	-1.05338E-004	11	...........	-327.56
	5405	5406	5.95088E-001	2.49194E-002	0.00000E+000	5.96000E-001	-1.04555E-004	10	...........	-327.56
	5460	5461	6.50060E-001	2.19722E-002	0.00000E+000	6.51000E-001	-1.03438E-004	10	...........	-327.56
	5515	5516	7.04945E-001	2.03413E-002	0.00000E+000	7.06000E-001	-1.07538E-004	10	...........	-327.56
	5570	5571	7.59945E-001	1.85876E-002	0.00000E+000	7.61000E-001	-1.06588E-004	10	...........	-327.56
	5625	5626	8.14936E-001	1.70454E-002	0.00000E+000	8.16000E-001	-1.07838E-004	10	...........	-327.56
	5680	5681	8.69876E-001	1.57446E-002	0.00000E+000	8.71000E-001	-1.05538E-004	10	...........	-327.56
	5735	5736	9.24849E-001	1.51910E-002	0.00000E+000	9.26000E-001	-1.06771E-004	10	...........	-327.56
	5790	5791	9.79810E-001	1.65624E-002	0.00000E+000	9.81000E-001	-1.02055E-004	10	...........	-327.56
	5845	5846	1.03467E+000	2.19718E-002	0.00000E+000	1.03600E+000	-1.06721E-004	10	...........	-327.56
	5900	5901	1.08980E+000	2.70844E-002	0.00000E+000	1.09100E+000	-1.05288E-004	11	...........	-327.56
	5955	5956	1.14474E+000	2.81379E-002	0.00000E+000	1.14600E+000	-1.06338E-004	11	...........	-327.56
	6010	6011	1.19968E+000	4.75210E-002	0.00000E+000	1.20100E+000	-1.05938E-004	11	...........	-327.56
	6065	6066	1.25461E+000	8.57056E-002	0.00000E+000	1.25600E+000	-1.04771E-004	11	...........	-327.56
	6120	6121	1.30949E+000	1.53898E-001	0.00000E+000	1.31100E+000	-1.03755E-004	11	...........	-327.56
	6175	6176	1.36426E+000	2.47926E-001	0.00000E+000	1.36600E+000	-1.05455E-004	11	...........	-327.56
	6230	6231	1.41943E+000	3.66433E-001	0.00000E+000	1.42100E+000	-1.06555E-004	12	...........	-327.56
	6285	6286	1.47419E+000	4.99330E-001	0.00000E+000	1.47600E+000	-1.05021E-004	12	...........	-327.56
[...]
	9602	9603	-6.06578E-001	1.62477E-002	0.00000E+000	-6.07000E-001	-1.02121E-004	10	...........	-327.56
	9630	9631	-5.78490E-001	5.17870E-002	0.00000E+000	-5.79000E-001	-1.04455E-004	11	...........	-327.56
	9658	9659	-5.50574E-001	8.72838E-002	0.00000E+000	-5.51000E-001	-1.03538E-004	11	...........	-327.56
	9686	9687	-5.22689E-001	1.02322E-001	0.00000E+000	-5.23000E-001	-1.07005E-004	11	...........	-327.56
	9714	9715	-4.94822E-001	1.46891E-001	0.00000E+000	-4.95000E-001	-1.02921E-004	11	...........	-327.56
	9742	9743	-4.66897E-001	1.95844E-001	0.00000E+000	-4.67000E-001	-1.03455E-004	11	...........	-327.56
	9770	9771	-4.38947E-001	2.16000E-001	0.00000E+000	-4.39000E-001	-1.00105E-004	11	...........	-327.56
	9798	9799	-4.10933E-001	2.01566E-001	0.00000E+000	-4.11000E-001	-1.04555E-004	11	...........	-327.56
	9826	9827	-3.82878E-001	1.78567E-001	0.00000E+000	-3.83000E-001	-1.06571E-004	11	...........	-327.56
	9854	9855	-3.54786E-001	1.13840E-001	0.00000E+000	-3.55000E-001	-1.06221E-004	11	...........	-327.56
	9882	9883	-3.26659E-001	4.05511E-002	0.00000E+000	-3.27000E-001	-1.02555E-004	11	...........	-327.56
	9910	9911	-2.98916E-001	2.13140E-002	0.00000E+000	-2.99000E-001	-1.02021E-004	10	...........	-327.56
	9938	9939	-2.70856E-001	1.35235E-002	0.00000E+000	-2.71000E-001	-1.06271E-004	10	...........	-327.56
	9966	9967	-2.42864E-001	5.83738E-003	0.00000E+000	-2.43000E-001	-1.02638E-004	10	...........	-327.56
	9994	9995	-2.14830E-001	3.26806E-003	0.00000E+000	-2.15000E-001	-1.05705E-004	10	...........	-327.56
	10022	10023	-1.86847E-001	4.20633E-003	0.00000E+000	-1.87000E-001	-1.05688E-004	10	...........	-327.56
	10050	10051	-1.58901E-001	6.88766E-003	0.00000E+000	-1.59000E-001	-1.06738E-004	10	...........	-327.56
	10078	10079	-1.30946E-001	1.03221E-002	0.00000E+000	-1.31000E-001	-1.04071E-004	10	...........	-327.56
	10106	10107	-1.02990E-001	1.35357E-002	0.00000E+000	-1.03000E-001	-1.05105E-004	10	...........	-327.56
	10134	10135	-7.51624E-002	2.23726E-002	0.00000E+000	-7.50000E-002	-1.05038E-004	10	...........	-327.56
	10162	10163	-4.69486E-002	3.77695E-002	0.00000E+000	-4.70000E-002	-1.06538E-004	11	...........	-327.56
	10190	10191	-1.89795E-002	5.94942E-002	0.00000E+000	-1.90000E-002	-1.03088E-004	11	...........	-327.56
	10218	10219	8.73989E-003	8.33945E-002	0.00000E+000	9.00003E-003	-1.03188E-004	11	...........	-327.56
	10246	10247	3.67065E-002	1.04643E-001	0.00000E+000	3.70000E-002	-1.05588E-004	11	...........	-327.56
	10274	10275	6.45575E-002	1.23554E-001	0.00000E+000	6.50000E-002	-1.05471E-004	11	...........	-327.56
	10302	10303	9.25850E-002	1.32679E-001	0.00000E+000	9.30000E-002	-1.03888E-004	11	...........	-327.56
	10330	10331	1.20544E-001	1.09087E-001	0.00000E+000	1.21000E-001	-1.07288E-004	11	...........	-327.56
	10358	10359	1.48627E-001	8.00583E-002	0.00000E+000	1.49000E-001	-1.07871E-004	11	...........	-327.56
	10386	10387	1.76577E-001	7.51220E-002	0.00000E+000	1.77000E-001	-1.04655E-004	11	...........	-327.56
	10414	10415	2.04583E-001	7.38828E-002	0.00000E+000	2.05000E-001	-1.04455E-004	11	...........	-327.56
	10442	10443	2.32558E-001	7.54002E-002	0.00000E+000	2.33000E-001	-1.04788E-004	11	...........	-327.56
	10470	10471	2.60556E-001	7.53985E-002	0.00000E+000	2.61000E-001	-1.05638E-004	11	...........	-327.56
	10498	10499	2.88531E-001	7.81488E-002	0.00000E+000	2.89000E-001	-1.02888E-004	11	...........	-327.56
	10526	10527	3.16497E-001	6.56097E-002	0.00000E+000	3.17000E-001	-1.05838E-004	11	...........	-327.56
	10554	10555	3.44484E-001	6.57876E-002	0.00000E+000	3.45000E-001	-1.06005E-004	11	...........	-327.56
	10582	10583	3.72372E-001	5.31504E-002	0.00000E+000	3.73000E-001	-1.04905E-004	11	...........	-327.56
	10610	10611	4.00387E-001	4.43850E-002	0.00000E+000	4.01000E-001	-1.03571E-004	11	...........	-327.56
	10638	10639	4.28401E-001	3.97402E-002	0.00000E+000	4.29000E-001	-1.05288E-004	11	...........	-327.56
	10666	10667	4.56403E-001	3.55932E-002	0.00000E+000	4.57000E-001	-1.04905E-004	11	...........	-327.56
	10694	10695	4.84388E-001	3.23377E-002	0.00000E+000	4.85000E-001	-1.05221E-004	11	...........	-327.56
	10722	10723	5.12354E-001	2.96211E-002	0.00000E+000	5.13000E-001	-1.01655E-004	11	...........	-327.56
	10750	10751	5.40358E-001	2.83922E-002	0.00000E+000	5.41000E-001	-1.04355E-004	11	...........	-327.56
	10778	10779	5.68351E-001	2.73302E-002	0.00000E+000	5.69000E-001	-1.03738E-004	11	...........	-327.56
	10806	10807	5.96330E-001	2.62139E-002	0.00000E+000	5.97000E-001	-1.03188E-004	11	...........	-327.56
	10834	10835	6.24315E-001	2.58666E-002	0.00000E+000	6.25000E-001	-1.03871E-004	11	...........	-327.56
	10862	10863	6.52016E-001	2.42524E-002	0.00000E+000	6.53000E-001	-1.02138E-004	10	...........	-327.56
	10890	10891	6.79942E-001	2.34685E-002	0.00000E+000	6.81000E-001	-1.02521E-004	10	...........	-327.56
	10918	10919	7.07957E-001	2.21681E-002	0.00000E+000	7.09000E-001	-9.93214E-005	10	...........	-327.56
	10946	10947	7.35937E-001	2.08380E-002	0.00000E+000	7.37000E-001	-1.04155E-004	10	...........	-327.56
	10974	10975	7.63925E-001	1.97796E-002	0.00000E+000	7.65000E-001	-1.00571E-004	10	...........	-327.56
	11002	11003	7.91936E-001	1.90309E-002	0.00000E+000	7.93000E-001	-1.02771E-004	10	...........	-327.56
	11030	11031	8.19894E-001	1.82173E-002	0.00000E+000	8.21000E-001	-9.57048E-005	10	...........	-327.56
	11058	11059	8.47917E-001	1.76062E-002	0.00000E+000	8.49000E-001	-1.03055E-004	10	...........	-327.56
	11086	11087	8.75896E-001	1.69740E-002	0.00000E+000	8.77000E-001	-9.62881E-005	10	...........	-327.56
	11114	11115	9.03899E-001	1.64497E-002	0.00000E+000	9.05000E-001	-1.02238E-004	10	...........	-327.56
	11142	11143	9.31845E-001	1.60762E-002	0.00000E+000	9.33000E-001	-9.97548E-005	10	...........	-327.56
	11170	11171	9.59817E-001	1.66876E-002	0.00000E+000	9.61000E-001	-9.80714E-005	10	...........	-327.56
	11198	11199	9.87680E-001	1.79177E-002	0.00000E+000	9.89000E-001	-1.02421E-004	10	...........	-327.56
	11226	11227	1.01568E+000	2.02793E-002	0.00000E+000	1.01700E+000	-1.01055E-004	10	...........	-327.56
	11254	11255	1.04359E+000	2.36714E-002	0.00000E+000	1.04500E+000	-9.90381E-005	10	...........	-327.56
	11282	11283	1.07189E+000	2.71580E-002	0.00000E+000	1.07300E+000	-1.02505E-004	11	...........	-327.56
	11310	11311	1.09983E+000	2.88746E-002	0.00000E+000	1.10100E+000	-1.02855E-004	11	...........	-327.56
	11338	11339	1.12783E+000	2.80847E-002	0.00000E+000	1.12900E+000	-1.03321E-004	11	...........	-327.56
	11366	11367	1.15580E+000	2.76463E-002	0.00000E+000	1.15700E+000	-1.02905E-004	11	...........	-327.56
	11394	11395	1.18376E+000	3.24760E-002	0.00000E+000	1.18500E+000	-1.01938E-004	11	...........	-327.56
	11422	11423	1.21174E+000	4.20463E-002	0.00000E+000	1.21300E+000	-1.03488E-004	11	...........	-327.56
	11450	11451	1.23969E+000	5.59330E-002	0.00000E+000	1.24100E+000	-1.03488E-004	11	...........	-327.56
	11478	11479	1.26755E+000	7.66916E-002	0.00000E+000	1.26900E+000	-1.00971E-004	11	...........	-327.56
	11506	11507	1.29550E+000	1.05269E-001	0.00000E+000	1.29700E+000	-1.01555E-004	11	...........	-327.56
	11534	11535	1.32345E+000	1.45569E-001	0.00000E+000	1.32500E+000	-9.93381E-005	11	...........	-327.56
	11562	11563	1.35131E+000	1.90243E-001	0.00000E+000	1.35300E+000	-1.01071E-004	11	...........	-327.56
	11590	11591	1.37918E+000	2.40874E-001	0.00000E+000	1.38100E+000	-1.03638E-004	11	...........	-327.56
	11618	11619	1.40742E+000	2.92957E-001	0.00000E+000	1.40900E+000	-1.01121E-004	12	...........	-327.56
	11646	11647	1.43538E+000	3.43848E-001	0.00000E+000	1.43700E+000	-1.03438E-004	12	...........	-327.56
	11674	11675	1.46335E+000	3.94600E-001	0.00000E+000	1.46500E+000	-1.03388E-004	12	...........	-327.56
	11702	11703	1.49128E+000	4.55929E-001	0.00000E+000	1.49300E+000	-1.01188E-004	12	...........	-327.56
	11730	11731	1.51920E+000	5.31819E-001	0.00000E+000	1.52100E+000	-1.01471E-004	12	...........	-327.56
	11758	11759	1.54712E+000	6.00814E-001	0.00000E+000	1.54900E+000	-1.04505E-004	12	...........	-327.56
	11786	11787	1.57497E+000	6.62480E-001	0.00000E+000	1.57700E+000	-1.01105E-004	12	...........	-327.56
	11814	11815	1.60297E+000	7.36133E-001	0.00000E+000	1.60500E+000	-1.01905E-004	12	...........	-327.56
	11842	11843	1.63087E+000	7.95759E-001	0.00000E+000	1.63300E+000	-1.03571E-004	12	...........	-327.56
	11870	11871	1.65880E+000	8.61084E-001	0.00000E+000	1.66100E+000	-1.02105E-004	12	...........	-327.56
	11898	11899	1.68677E+000	9.17929E-001	0.00000E+000	1.68900E+000	-1.02421E-004	12	...........	-327.56
	11909	11910	1.69780E+000	9.40963E-001	0.00000E+000	1.70000E+000	-1.02371E-004	12	...........	-327.56