File: testing/data/240912_01_MCL16_CSWWE1_LSV100-INIT_CO2_750C.DTA
EXPLAIN
TAG	LSV
TITLE	LABEL	Linear Sweep Voltammetry	Test Identifier
DATE	LABEL	9/12/2024	Date
TIME	LABEL	15:40:48	Time
NOTES	NOTES	2	Notes...
	WE1 - double (looped) wire approx 30 mm depth
WE2 - carbon steel wire approx 10 mm depth
PSTAT	PSTAT	REF3000-48128	Potentiostat
VINIT	POTEN	0.00000E+000	T	Initial E (V)
VFINAL	POTEN	1.30000E+000	F	Final E (V)
SCANRATE	QUANT	9.99998E+001	Scan Rate (mV/s)
STEPSIZE	QUANT	1.00000E+000	Step Size (mV)
IMODE	SELECTOR	0	I/E Range Mode
IRANGE	QUANT	3.00000E-001	Max Current (mA)
AREA	QUANT	1.00000E+000	Sample Area (cm^2)
EQDELAY	QUANT	3.00000E+001	Equil. Time (s)
IRCOMP	SELECTOR	0	IRComp
PFCOR	QUANT	5.00000E+001	PF Corr. (ohm)
SAMPLINGMODE	SELECTOR	1	Sampling Mode
EOC	QUANT	0	Open Circuit (V)
ELECTRODETYPE	SELECTOR	0	Electrode Type
STRIPPING	TOGGLE	F	Used for Stripping
SEQUENCER	TOGGLE	TRUE	Run as Sequence
PSTATMODEL	IQUANT	5	Pstat Model
PSTATSECTION	LABEL	REF3000-48128	Pstat Section
PSTATSERIALNO	LABEL	48128	Pstat Serial Number
CTRLMODE	IQUANT	1	Control Mode
ELECTROMETER	IQUANT	0	RE=0 or CS=1
IESTAB	IQUANT	2	I/E Stability
CASPEED	IQUANT	4	Control Amp Speed
CONVENTION	IQUANT	1	Current Convention
ICHRANGE	IQUANT	2	Ich Range
ICHRANGEMODE	TOGGLE	F	Ich Auto Range
ICHOFFSETENABLE	TOGGLE	F	Ich Offset Enable
ICHOFFSET	QUANT	0	Ich Offset (V)
ICHFILTER	IQUANT	2	Ich Filter
VCHRANGE	IQUANT	2	Vch Range
VCHRANGEMODE	TOGGLE	F	Vch Auto Range
VCHOFFSETENABLE	TOGGLE	F	Vch Offset Enable
VCHOFFSET	QUANT	0	Vch Offset (V)
VCHFILTER	IQUANT	2	Vch Filter
ACHRANGE	IQUANT	2	Ach Range
ACHOFFSETENABLE	TOGGLE	F	Ach Offset Enable
ACHOFFSET	QUANT	0	Ach Offset (V)
ACHFILTER	IQUANT	1	Ach Filter
IERANGELOWERLIMIT	IQUANT	2	I/E Range Lower Limit
IERANGEMODE	TOGGLE	T	I/E AutoRange
IERANGE	IQUANT	9	I/E Range
POSFEEDENABLE	TOGGLE	F	Positive Feedback IR Comp
POSFEEDRESISTANCE	QUANT	0	Positive Feedback Resistance (ohm)
ACHSELECT	IQUANT	4	Ach Select
SENSECABLEID	IQUANT	14	Sense Cable ID
PWRCABLEID	IQUANT	7	Power Cable ID
DCCALDATE	LABEL	8/16/2024	DC Calibration Date
ACCALDATE	LABEL	8/16/2024	AC Calibration Date
THERMOSELECT	IQUANT	1	Thermo Select
FRAMEWORKVERSION	LABEL	7.10.3	Framework Version
INSTRUMENTVERSION	LABEL	4.91	Instrument Version
COMMVERSION	LABEL	5.10	Communications Version
CPUPLDVERSION	LABEL	6.00	CPU PLD Version
CTRLPLDVERSION	LABEL	3.21	CTRL PLD Version
PSTATPLDVERSION	LABEL	0.00	PSTAT PLD Version
COMPLIANCEVOLTAGE	IQUANT	0	Compliance Voltage
CURVE	TABLE	1301
	Pt	T	Vf	Im	Vu	Sig	Ach	IERange	Over	Cycle	Temp
	#	s	V vs. Ref.	A	V	V	V	#	bits	#	deg C
	0	0.01	2.19433E-005	1.72380E-004	0.00000E+000	5.96046E-008	-1.09555E-004	9	...........	0	-327.56
	14	0.15	1.36228E-002	1.50594E-003	0.00000E+000	1.40001E-002	-1.16221E-004	9	...........	0	-327.56
	28	0.29	2.76711E-002	2.30648E-003	0.00000E+000	2.80001E-002	-1.19555E-004	9	...........	0	-327.56
	42	0.43	4.18624E-002	3.06188E-003	0.00000E+000	4.20001E-002	-1.27888E-004	10	...........	0	-327.56
	56	0.57	5.59074E-002	3.77350E-003	0.00000E+000	5.60001E-002	-1.17888E-004	10	...........	0	-327.56
	70	0.71	6.98233E-002	4.51060E-003	0.00000E+000	7.00001E-002	-1.04555E-004	10	...........	0	-327.56
	84	0.85	8.38841E-002	5.29049E-003	0.00000E+000	8.40001E-002	-1.22888E-004	10	...........	0	-327.56
	98	0.99	9.78124E-002	6.13855E-003	0.00000E+000	9.80000E-002	-9.78881E-005	10	...........	0	-327.56
	112	1.13	1.11823E-001	7.07705E-003	0.00000E+000	1.12000E-001	-1.21221E-004	10	...........	0	-327.56
	126	1.27	1.25733E-001	8.11347E-003	0.00000E+000	1.26000E-001	-1.19555E-004	10	...........	0	-327.56
	140	1.41	1.39765E-001	9.27396E-003	0.00000E+000	1.40000E-001	-9.95548E-005	10	...........	0	-327.56
	154	1.55	1.53672E-001	1.06094E-002	0.00000E+000	1.54000E-001	-1.12888E-004	10	...........	0	-327.56
	168	1.69	1.67602E-001	1.21344E-002	0.00000E+000	1.68000E-001	-1.22888E-004	10	...........	0	-327.56
	182	1.83	1.81642E-001	1.38729E-002	0.00000E+000	1.82000E-001	-1.11221E-004	10	...........	0	-327.56
	196	1.97	1.95597E-001	1.58857E-002	0.00000E+000	1.96000E-001	-1.22888E-004	10	...........	0	-327.56
	210	2.11	2.09586E-001	1.82261E-002	0.00000E+000	2.10000E-001	-1.16221E-004	10	...........	0	-327.56
	224	2.25	2.23483E-001	2.09586E-002	0.00000E+000	2.24000E-001	-1.12888E-004	10	...........	0	-327.56
	238	2.39	2.37523E-001	2.41164E-002	0.00000E+000	2.38000E-001	-9.78881E-005	10	...........	0	-327.56
	252	2.53	2.51720E-001	2.78685E-002	0.00000E+000	2.52000E-001	-1.24555E-004	11	...........	0	-327.56
	266	2.67	2.65739E-001	3.20138E-002	0.00000E+000	2.66000E-001	-1.22888E-004	11	...........	0	-327.56
	280	2.81	2.79677E-001	3.67132E-002	0.00000E+000	2.80000E-001	-1.01221E-004	11	...........	0	-327.56
	294	2.95	2.93710E-001	4.20119E-002	0.00000E+000	2.94000E-001	-1.07888E-004	11	...........	0	-327.56
	308	3.09	3.07620E-001	4.80074E-002	0.00000E+000	3.08000E-001	-1.17888E-004	11	...........	0	-327.56
	322	3.23	3.21558E-001	5.46972E-002	0.00000E+000	3.22000E-001	-1.27888E-004	11	...........	0	-327.56
	336	3.37	3.35611E-001	6.22979E-002	0.00000E+000	3.36000E-001	-1.22888E-004	11	...........	0	-327.56
	350	3.51	3.49527E-001	7.07843E-002	0.00000E+000	3.50000E-001	-1.11221E-004	11	...........	0	-327.56
	364	3.65	3.63581E-001	8.02519E-002	0.00000E+000	3.64000E-001	-1.01221E-004	11	...........	0	-327.56
	378	3.79	3.77520E-001	9.08455E-002	0.00000E+000	3.78000E-001	-1.07888E-004	11	...........	0	-327.56
	392	3.93	3.91506E-001	1.02386E-001	0.00000E+000	3.92000E-001	-1.22888E-004	11	...........	0	-327.56
	406	4.07	4.05443E-001	1.15033E-001	0.00000E+000	4.06000E-001	-1.16221E-004	11	...........	0	-327.56
	420	4.21	4.19489E-001	1.28564E-001	0.00000E+000	4.20000E-001	-1.21221E-004	11	...........	0	-327.56
	434	4.35	4.33452E-001	1.43116E-001	0.00000E+000	4.34000E-001	-1.17888E-004	11	...........	0	-327.56
	448	4.49	4.47391E-001	1.58613E-001	0.00000E+000	4.48000E-001	-1.21221E-004	11	...........	0	-327.56
	462	4.63	4.61320E-001	1.75083E-001	0.00000E+000	4.62000E-001	-1.19555E-004	11	...........	0	-327.56
	476	4.77	4.75199E-001	1.92439E-001	0.00000E+000	4.76000E-001	-1.11221E-004	11	...........	0	-327.56
	490	4.91	4.89274E-001	2.10829E-001	0.00000E+000	4.90000E-001	-1.09555E-004	11	...........	0	-327.56
	504	5.05	5.03181E-001	2.29928E-001	0.00000E+000	5.04000E-001	-1.01221E-004	11	...........	0	-327.56
	518	5.19	5.17209E-001	2.49863E-001	0.00000E+000	5.18000E-001	-1.07888E-004	11	...........	0	-327.56
	532	5.33	5.31368E-001	2.71365E-001	0.00000E+000	5.32000E-001	-1.31221E-004	12	...h.......	0	-327.56
	546	5.47	5.45433E-001	2.91043E-001	0.00000E+000	5.46000E-001	-1.19555E-004	12	...........	0	-327.56
	560	5.61	5.59344E-001	3.05862E-001	0.00000E+000	5.60000E-001	-1.37888E-004	12	...........	0	-327.56
	574	5.75	5.73420E-001	3.12418E-001	0.00000E+000	5.74000E-001	-1.07888E-004	12	...........	0	-327.56
	588	5.89	5.87356E-001	3.15325E-001	0.00000E+000	5.88000E-001	-1.24555E-004	12	...........	0	-327.56
	602	6.03	6.01362E-001	3.22341E-001	0.00000E+000	6.02000E-001	-1.21221E-004	12	...........	0	-327.56
	616	6.17	6.15292E-001	3.30243E-001	0.00000E+000	6.16000E-001	-1.11221E-004	12	...........	0	-327.56
	630	6.31	6.29252E-001	3.31273E-001	0.00000E+000	6.30000E-001	-1.04555E-004	12	...........	0	-327.56
	644	6.45	6.43332E-001	3.25455E-001	0.00000E+000	6.44000E-001	-1.12888E-004	12	...........	0	-327.56
	658	6.59	6.57276E-001	3.02704E-001	0.00000E+000	6.58000E-001	-1.14555E-004	12	...........	0	-327.56
	672	6.73	6.71343E-001	2.64465E-001	0.00000E+000	6.72000E-001	-1.12888E-004	12	...........	0	-327.56
	686	6.87	6.85063E-001	2.34969E-001	0.00000E+000	6.86000E-001	-1.17888E-004	11	...........	0	-327.56
	700	7.01	6.99121E-001	2.13034E-001	0.00000E+000	7.00000E-001	-1.04555E-004	11	...........	0	-327.56
	714	7.15	7.13100E-001	1.96838E-001	0.00000E+000	7.14000E-001	-1.01221E-004	11	...........	0	-327.56
	728	7.29	7.27119E-001	1.85203E-001	0.00000E+000	7.28000E-001	-1.14555E-004	11	...........	0	-327.56
	742	7.43	7.41094E-001	1.75807E-001	0.00000E+000	7.42000E-001	-1.16221E-004	11	...........	0	-327.56
	756	7.57	7.55124E-001	1.68758E-001	0.00000E+000	7.56000E-001	-1.16221E-004	11	...........	0	-327.56
	770	7.71	7.69099E-001	1.62719E-001	0.00000E+000	7.70000E-001	-1.27888E-004	11	...........	0	-327.56
	784	7.85	7.83050E-001	1.57654E-001	0.00000E+000	7.84000E-001	-1.04555E-004	11	...........	0	-327.56
	798	7.99	7.97148E-001	1.53288E-001	0.00000E+000	7.98000E-001	-1.04555E-004	11	...........	0	-327.56
	812	8.13	8.11127E-001	1.49180E-001	0.00000E+000	8.12000E-001	-1.19555E-004	11	...........	0	-327.56
	826	8.27	8.25083E-001	1.45516E-001	0.00000E+000	8.26000E-001	-1.31221E-004	11	...........	0	-327.56
	840	8.41	8.39056E-001	1.42394E-001	0.00000E+000	8.40000E-001	-1.19555E-004	11	...........	0	-327.56
	854	8.55	8.53122E-001	1.39281E-001	0.00000E+000	8.54000E-001	-1.09555E-004	11	...........	0	-327.56
	868	8.69	8.67106E-001	1.35571E-001	0.00000E+000	8.68000E-001	-1.26221E-004	11	...........	0	-327.56
	882	8.83	8.81060E-001	1.32578E-001	0.00000E+000	8.82000E-001	-1.37888E-004	11	...........	0	-327.56
	896	8.97	8.95031E-001	1.29980E-001	0.00000E+000	8.96000E-001	-1.26221E-004	11	...........	0	-327.56
	910	9.11	9.08986E-001	1.26484E-001	0.00000E+000	9.10000E-001	-1.22888E-004	11	...........	0	-327.56
	924	9.25	9.23056E-001	1.23304E-001	0.00000E+000	9.24000E-001	-1.06221E-004	11	...........	0	-327.56
	938	9.39	9.36963E-001	1.20524E-001	0.00000E+000	9.38000E-001	-1.27888E-004	11	...........	0	-327.56
	952	9.53	9.51035E-001	1.17740E-001	0.00000E+000	9.52000E-001	-1.06221E-004	11	...........	0	-327.56
	966	9.67	9.64977E-001	1.15253E-001	0.00000E+000	9.66000E-001	-1.32888E-004	11	...........	0	-327.56
	980	9.81	9.79070E-001	1.12513E-001	0.00000E+000	9.80000E-001	-1.16221E-004	11	...........	0	-327.56
	994	9.95	9.92968E-001	1.10423E-001	0.00000E+000	9.94000E-001	-1.22888E-004	11	...........	0	-327.56
	1008	10.09	1.00704E+000	1.08243E-001	0.00000E+000	1.00800E+000	-1.32888E-004	11	...........	0	-327.56
	1022	10.23	1.02100E+000	1.06686E-001	0.00000E+000	1.02200E+000	-1.21221E-004	11	...........	0	-327.56
	1036	10.37	1.03501E+000	1.04902E-001	0.00000E+000	1.03600E+000	-1.17888E-004	11	...........	0	-327.56
	1050	10.51	1.04895E+000	1.03295E-001	0.00000E+000	1.05000E+000	-1.17888E-004	11	...........	0	-327.56
	1064	10.65	1.06289E+000	1.01705E-001	0.00000E+000	1.06400E+000	-1.01221E-004	11	...........	0	-327.56
	1078	10.79	1.07697E+000	1.00805E-001	0.00000E+000	1.07800E+000	-1.17888E-004	11	...........	0	-327.56
	1092	10.93	1.09100E+000	1.00416E-001	0.00000E+000	1.09200E+000	-1.16221E-004	11	...........	0	-327.56
	1106	11.07	1.10498E+000	1.00349E-001	0.00000E+000	1.10600E+000	-1.24555E-004	11	...........	0	-327.56
	1120	11.21	1.11891E+000	1.00560E-001	0.00000E+000	1.12000E+000	-1.11221E-004	11	...........	0	-327.56
	1134	11.35	1.13294E+000	1.01732E-001	0.00000E+000	1.13400E+000	-1.14555E-004	11	...........	0	-327.56
	1148	11.49	1.14687E+000	1.02755E-001	0.00000E+000	1.14800E+000	-1.12888E-004	11	...........	0	-327.56
	1162	11.63	1.16090E+000	1.04215E-001	0.00000E+000	1.16200E+000	-1.19555E-004	11	...........	0	-327.56
	1176	11.77	1.17485E+000	1.05533E-001	0.00000E+000	1.17600E+000	-1.14555E-004	11	...........	0	-327.56
	1190	11.91	1.18888E+000	1.07526E-001	0.00000E+000	1.19000E+000	-1.07888E-004	11	...........	0	-327.56
	1204	12.05	1.20285E+000	1.09028E-001	0.00000E+000	1.20400E+000	-1.12888E-004	11	...........	0	-327.56
	1218	12.19	1.21672E+000	1.10679E-001	0.00000E+000	1.21800E+000	-9.95548E-005	11	...........	0	-327.56
	1232	12.33	1.23085E+000	1.12640E-001	0.00000E+000	1.23200E+000	-1.09555E-004	11	...........	0	-327.56
	1246	12.47	1.24478E+000	1.14847E-001	0.00000E+000	1.24600E+000	-1.06221E-004	11	...........	0	-327.56
	1260	12.61	1.25881E+000	1.17374E-001	0.00000E+000	1.26000E+000	-1.16221E-004	11	...........	0	-327.56
	1274	12.75	1.27276E+000	1.20426E-001	0.00000E+000	1.27400E+000	-1.04555E-004	11	...........	0	-327.56
	1288	12.89	1.28683E+000	1.24202E-001	0.00000E+000	1.28800E+000	-1.19555E-004	11	...........	0	-327.56
	1300	13.01	1.29874E+000	1.28381E-001	0.00000E+000	1.30000E+000	-1.12888E-004	11	...........	0	-327.56