File: testing/data/241007_01_MCL21_cswWE1_CV2_CO2_750C.DTA
EXPLAIN
TAG	CV
TITLE	LABEL	Cyclic Voltammetry	Test &Identifier
DATE	LABEL	10/7/2024	Date
TIME	LABEL	15:52:45	Time
NOTES	NOTES	2	&Notes...
	WE: biltema wire 10mm x 1.5mm
	CE: biltema plate 2x2cm
PSTAT	PSTAT	REF3000-48128	Potentiostat
VINIT	POTEN	0.00000E+000	T	Initial &E (V)
VLIMIT1	POTEN	1.30000E+000	F	Scan Limit &1 (V)
VLIMIT2	POTEN	-1.00000E+000	F	Scan Limit &2 (V)
VFINAL	POTEN	1.30000E+000	F	Final &E (V)
SCANRATE	QUANT	2.00000E+000	&Scan Rate (mV/s)
STEPSIZE	QUANT	1.00000E+000	St&ep Size (mV)
CYCLES	IQUANT	2	C&ycles (#)
IMODE	SELECTOR	0	I/E Range &Mode
IRANGE	QUANT	0.00000E+000	&Max Current (mA)
AREA	QUANT	4.89000E-001	Electrode &Area (cm^2)
ELECTRODETYPE	SELECTOR	0	Electrode Type
STRIPPING	TOGGLE	F	Used for Stripping
CONDIT	TWOPARAM	F	1.50000E+001	0.00000E+000	Conditionin&g	Time(s)	E(V)
DELAY	TWOPARAM	T	3.00000E+001	1.00000E+000	Init. De&lay	Time(s)	Stab.(mV/s)
EQDELAY	QUANT	0.00000E+000	Equil. &Time (s)
IRCOMP	SELECTOR	0	IRCom&p
PFCOR	QUANT	5.00000E+001	PF Corr. (ohm)
SAMPLINGMODE	SELECTOR	1	Sampling &Mode
OCVCURVE	TABLE	11
	Pt	T	Vf	Vm	Ach	Over	Temp
	#	s	V vs. Ref.	V	V	bits	deg C
	0	0.25	1.10862E-001	1.10862E-001	-8.88481E-004	...........	-327.56
	1	0.5	1.10856E-001	1.10565E-001	-8.93547E-004	...........	-327.56
	2	0.75	1.10821E-001	1.10244E-001	-8.88148E-004	...........	-327.56
	3	1	1.10716E-001	1.09892E-001	-8.93014E-004	...........	-327.56
	4	1.25	1.10520E-001	1.09478E-001	-8.88547E-004	...........	-327.56
	5	1.5	1.10239E-001	1.09117E-001	-8.92947E-004	...........	-327.56
	6	1.75	1.09899E-001	1.08698E-001	-8.86947E-004	...........	-327.56
	7	2	1.09527E-001	1.08424E-001	-8.95147E-004	...........	-327.56
	8	2.25	1.09149E-001	1.08084E-001	-8.94281E-004	...........	-327.56
	9	2.5	1.08785E-001	1.07735E-001	-8.91081E-004	...........	-327.56
	10	2.75	1.08437E-001	1.07406E-001	-8.89347E-004	...........	-327.56
EOC	QUANT	0.1084374	Open Circuit (V)
PSTATMODEL	IQUANT	5	Pstat Model
PSTATSECTION	LABEL	REF3000-48128	Pstat Section
PSTATSERIALNO	LABEL	48128	Pstat Serial Number
CTRLMODE	IQUANT	1	Control Mode
ELECTROMETER	IQUANT	0	RE=0 or CS=1
IESTAB	IQUANT	2	I/E Stability
CASPEED	IQUANT	4	Control Amp Speed
CONVENTION	IQUANT	1	Current Convention
ICHRANGE	IQUANT	2	Ich Range
ICHRANGEMODE	TOGGLE	F	Ich Auto Range
ICHOFFSETENABLE	TOGGLE	F	Ich Offset Enable
ICHOFFSET	QUANT	0	Ich Offset (V)
ICHFILTER	IQUANT	3	Ich Filter
VCHRANGE	IQUANT	2	Vch Range
VCHRANGEMODE	TOGGLE	F	Vch Auto Range
VCHOFFSETENABLE	TOGGLE	F	Vch Offset Enable
VCHOFFSET	QUANT	0	Vch Offset (V)
VCHFILTER	IQUANT	3	Vch Filter
ACHRANGE	IQUANT	2	Ach Range
ACHOFFSETENABLE	TOGGLE	F	Ach Offset Enable
ACHOFFSET	QUANT	0	Ach Offset (V)
ACHFILTER	IQUANT	1	Ach Filter
IERANGELOWERLIMIT	IQUANT	2	I/E Range Lower Limit
IERANGEMODE	TOGGLE	T	I/E AutoRange
IERANGE	IQUANT	2	I/E Range
POSFEEDENABLE	TOGGLE	F	Positive Feedback IR Comp
POSFEEDRESISTANCE	QUANT	0	Positive Feedback Resistance (ohm)
ACHSELECT	IQUANT	4	Ach Select
SENSECABLEID	IQUANT	14	Sense Cable ID
PWRCABLEID	IQUANT	7	Power Cable ID
DCCALDATE	LABEL	9/17/2024	DC Calibration Date
ACCALDATE	LABEL	8/16/2024	AC Calibration Date
THERMOSELECT	IQUANT	1	Thermo Select
FRAMEWORKVERSION	LABEL	7.10.3	Framework Version
INSTRUMENTVERSION	LABEL	4.91	Instrument Version
COMMVERSION	LABEL	5.10	Communications Version
CPUPLDVERSION	LABEL	6.00	CPU PLD Version
CTRLPLDVERSION	LABEL	3.21	CTRL PLD Version
PSTATPLDVERSION	LABEL	0.00	PSTAT PLD Version
COMPLIANCEVOLTAGE	IQUANT	0	Compliance Voltage
CURVE1	TABLE
	Pt	T	Vf	Im	Vu	Sig	Ach	IERange	Over	Temp
	#	s	V vs. Ref.	A	V	V	V	#	bits	deg C
	0	0.5	1.07185E-001	3.27499E-006	0.00000E+000	1.08450E-001	-5.36141E-005	6	....ih..i..	-327.56
	36	18.5	1.44191E-001	4.58485E-003	0.00000E+000	1.44450E-001	-5.60474E-005	10	...........	-327.56
	72	36.5	1.80153E-001	8.53040E-003	0.00000E+000	1.80450E-001	-6.49808E-005	10	...........	-327.56
	108	54.5	2.16102E-001	1.30463E-002	0.00000E+000	2.16450E-001	-6.32808E-005	10	...........	-327.56
	144	72.5	2.51957E-001	1.84227E-002	0.00000E+000	2.52450E-001	-6.01808E-005	10	...........	-327.56
	180	90.5	2.87919E-001	2.46838E-002	0.00000E+000	2.88450E-001	-6.13474E-005	10	...........	-327.56
	216	108.5	3.24026E-001	3.25841E-002	0.00000E+000	3.24450E-001	-6.19474E-005	11	...........	-327.56
	252	126.5	3.60047E-001	4.25125E-002	0.00000E+000	3.60450E-001	-6.67474E-005	11	...........	-327.56
	288	144.5	3.95995E-001	5.50423E-002	0.00000E+000	3.96450E-001	-6.81808E-005	11	...........	-327.56
	324	162.5	4.31967E-001	6.07060E-002	0.00000E+000	4.32450E-001	-6.73141E-005	11	...........	-327.56
	360	180.5	4.68023E-001	2.68810E-002	0.00000E+000	4.68450E-001	-6.23141E-005	11	...........	-327.56
	396	198.5	5.03963E-001	2.55427E-002	0.00000E+000	5.04450E-001	-6.36474E-005	11	...........	-327.56
	432	216.5	5.39945E-001	2.84533E-002	0.00000E+000	5.40450E-001	-5.92141E-005	11	...........	-327.56
	468	234.5	5.75926E-001	2.96088E-002	0.00000E+000	5.76450E-001	-6.30141E-005	11	...........	-327.56
	504	252.5	6.11863E-001	2.94404E-002	0.00000E+000	6.12450E-001	-6.24808E-005	11	...........	-327.56
	540	270.5	6.47891E-001	2.87572E-002	0.00000E+000	6.48450E-001	-6.30808E-005	11	...........	-327.56
	576	288.5	6.83768E-001	2.81135E-002	0.00000E+000	6.84450E-001	-6.39141E-005	11	...........	-327.56
	612	306.5	7.19786E-001	2.76464E-002	0.00000E+000	7.20450E-001	-6.61474E-005	11	...........	-327.56
	648	324.5	7.55660E-001	2.75017E-002	0.00000E+000	7.56450E-001	-6.20141E-005	11	...........	-327.56
	684	342.5	7.91693E-001	2.76335E-002	0.00000E+000	7.92450E-001	-6.47141E-005	11	...........	-327.56
	720	360.5	8.27676E-001	2.78532E-002	0.00000E+000	8.28450E-001	-6.08474E-005	11	...........	-327.56
	756	378.5	8.63578E-001	2.80345E-002	0.00000E+000	8.64450E-001	-6.14141E-005	11	...........	-327.56
	792	396.5	8.99612E-001	2.81057E-002	0.00000E+000	9.00450E-001	-6.10141E-005	11	...........	-327.56
	828	414.5	9.35462E-001	2.81515E-002	0.00000E+000	9.36450E-001	-6.42808E-005	11	...........	-327.56
	864	432.5	9.71496E-001	2.82712E-002	0.00000E+000	9.72450E-001	-6.48141E-005	11	...........	-327.56
	900	450.5	1.00749E+000	2.90290E-002	0.00000E+000	1.00845E+000	-6.15474E-005	11	...........	-327.56
	936	468.5	1.04339E+000	3.12034E-002	0.00000E+000	1.04445E+000	-6.30808E-005	11	...........	-327.56
	972	486.5	1.07944E+000	3.44093E-002	0.00000E+000	1.08045E+000	-6.30474E-005	11	...........	-327.56
	1008	504.5	1.11534E+000	3.86779E-002	0.00000E+000	1.11645E+000	-6.51141E-005	11	...........	-327.56
	1044	522.5	1.15127E+000	4.40809E-002	0.00000E+000	1.15245E+000	-6.42474E-005	11	...........	-327.56
	1080	540.5	1.18731E+000	5.12138E-002	0.00000E+000	1.18845E+000	-6.24474E-005	11	...........	-327.56
	1116	558.5	1.22320E+000	5.77268E-002	0.00000E+000	1.22445E+000	-6.29474E-005	11	...........	-327.56
	1152	576.5	1.25926E+000	6.55332E-002	0.00000E+000	1.26045E+000	-6.63141E-005	11	...........	-327.56
	1188	594.5	1.29513E+000	7.87401E-002	0.00000E+000	1.29645E+000	-6.14141E-005	11	...........	-327.56
	1224	612.5	1.26725E+000	5.83465E-002	0.00000E+000	1.26845E+000	-6.11141E-005	11	...........	-327.56
	1260	630.5	1.23129E+000	3.94313E-002	0.00000E+000	1.23245E+000	-6.45141E-005	11	...........	-327.56
	1296	648.5	1.19526E+000	3.20075E-002	0.00000E+000	1.19645E+000	-6.41141E-005	11	...........	-327.56
	1332	666.5	1.15914E+000	2.19590E-002	0.00000E+000	1.16045E+000	-5.78141E-005	10	...........	-327.56
	1368	684.5	1.12321E+000	1.73256E-002	0.00000E+000	1.12445E+000	-6.32474E-005	10	...........	-327.56
	1404	702.5	1.08727E+000	1.62972E-002	0.00000E+000	1.08845E+000	-6.39808E-005	10	...........	-327.56
	1440	720.5	1.05130E+000	1.57798E-002	0.00000E+000	1.05245E+000	-5.97808E-005	10	...........	-327.56
	1476	738.5	1.01526E+000	1.62400E-002	0.00000E+000	1.01645E+000	-6.26474E-005	10	...........	-327.56
	1512	756.5	9.79355E-001	1.71275E-002	0.00000E+000	9.80450E-001	-5.74808E-005	10	...........	-327.56
	1548	774.5	9.43319E-001	1.80165E-002	0.00000E+000	9.44450E-001	-6.20474E-005	10	...........	-327.56
	1584	792.5	9.07446E-001	1.86310E-002	0.00000E+000	9.08450E-001	-5.87141E-005	10	...........	-327.56
	1620	810.5	8.71423E-001	1.86955E-002	0.00000E+000	8.72450E-001	-5.93808E-005	10	...........	-327.56
	1656	828.5	8.35389E-001	1.88350E-002	0.00000E+000	8.36450E-001	-5.85474E-005	10	...........	-327.56
	1692	846.5	7.99507E-001	1.91477E-002	0.00000E+000	8.00450E-001	-5.96141E-005	10	...........	-327.56
	1728	864.5	7.63493E-001	1.93897E-002	0.00000E+000	7.64450E-001	-6.02808E-005	10	...........	-327.56
	1764	882.5	7.27558E-001	1.94686E-002	0.00000E+000	7.28450E-001	-5.88141E-005	10	...........	-327.56
	1800	900.5	6.91584E-001	1.93615E-002	0.00000E+000	6.92450E-001	-5.47141E-005	10	...........	-327.56
	1836	918.5	6.55568E-001	1.90490E-002	0.00000E+000	6.56450E-001	-5.79474E-005	10	...........	-327.56
	1872	936.5	6.19676E-001	1.86816E-002	0.00000E+000	6.20450E-001	-6.24141E-005	10	...........	-327.56
	1908	954.5	5.83656E-001	1.81656E-002	0.00000E+000	5.84450E-001	-5.92474E-005	10	...........	-327.56
	1944	972.5	5.47779E-001	1.76298E-002	0.00000E+000	5.48450E-001	-5.78808E-005	10	...........	-327.56
	1980	990.5	5.11813E-001	1.70080E-002	0.00000E+000	5.12450E-001	-5.94808E-005	10	...........	-327.56
	2016	1008.5	4.75763E-001	1.62555E-002	0.00000E+000	4.76450E-001	-6.02808E-005	10	...........	-327.56
	2052	1026.5	4.39921E-001	1.51094E-002	0.00000E+000	4.40450E-001	-6.12141E-005	10	...........	-327.56
	2088	1044.5	4.03871E-001	1.35415E-002	0.00000E+000	4.04450E-001	-5.72808E-005	10	...........	-327.56
	2124	1062.5	3.67971E-001	1.24363E-002	0.00000E+000	3.68450E-001	-6.02141E-005	10	...........	-327.56
	2160	1080.5	3.31956E-001	1.23144E-002	0.00000E+000	3.32450E-001	-5.83141E-005	10	...........	-327.56
	2196	1098.5	2.95971E-001	1.33239E-002	0.00000E+000	2.96450E-001	-6.26474E-005	10	...........	-327.56
	2232	1116.5	2.60098E-001	9.30525E-003	0.00000E+000	2.60450E-001	-5.80141E-005	10	...........	-327.56
	2268	1134.5	2.24132E-001	5.12580E-003	0.00000E+000	2.24450E-001	-5.88141E-005	10	...........	-327.56
	2304	1152.5	1.88057E-001	1.86761E-003	0.00000E+000	1.88450E-001	-5.78141E-005	9	...........	-327.56
	2340	1170.5	1.52517E-001	-2.03200E-004	0.00000E+000	1.52450E-001	-5.68474E-005	8	...........	-327.56
	2376	1188.5	1.16430E-001	-1.52404E-003	0.00000E+000	1.16450E-001	-5.98808E-005	9	...........	-327.56
	2412	1206.5	8.06973E-002	-2.37568E-003	0.00000E+000	8.04500E-002	-5.74474E-005	9	...........	-327.56
	2448	1224.5	4.43910E-002	-2.92139E-003	0.00000E+000	4.44500E-002	-5.74474E-005	10	...........	-327.56
	2484	1242.5	8.49309E-003	-3.23153E-003	0.00000E+000	8.45002E-003	-6.30474E-005	10	...........	-327.56
	2520	1260.5	-2.72834E-002	-3.53343E-003	0.00000E+000	-2.75500E-002	-6.27141E-005	10	...........	-327.56
	2556	1278.5	-6.33420E-002	-4.05295E-003	0.00000E+000	-6.35500E-002	-5.97474E-005	10	...........	-327.56
	2592	1296.5	-9.92273E-002	-4.38812E-003	0.00000E+000	-9.95500E-002	-5.91141E-005	10	...........	-327.56
	2628	1314.5	-1.35212E-001	-5.02620E-003	0.00000E+000	-1.35550E-001	-6.05141E-005	10	...........	-327.56
	2664	1332.5	-1.71109E-001	-6.05872E-003	0.00000E+000	-1.71550E-001	-6.34474E-005	10	...........	-327.56
	2700	1350.5	-2.07097E-001	-7.72945E-003	0.00000E+000	-2.07550E-001	-6.21474E-005	10	...........	-327.56
	2736	1368.5	-2.43058E-001	-1.02777E-002	0.00000E+000	-2.43550E-001	-5.97474E-005	10	...........	-327.56
	2772	1386.5	-2.78934E-001	-1.44013E-002	0.00000E+000	-2.79550E-001	-5.82808E-005	10	...........	-327.56
	2808	1404.5	-3.14827E-001	-2.21170E-002	0.00000E+000	-3.15550E-001	-5.39141E-005	10	...........	-327.56
	2844	1422.5	-3.50980E-001	-3.51450E-002	0.00000E+000	-3.51550E-001	-6.28808E-005	11	...........	-327.56
	2880	1440.5	-3.86960E-001	-5.53329E-002	0.00000E+000	-3.87550E-001	-6.02141E-005	11	...........	-327.56
	2916	1458.5	-4.22868E-001	-8.72135E-002	0.00000E+000	-4.23550E-001	-6.15474E-005	11	...........	-327.56
	2952	1476.5	-4.58792E-001	-1.29620E-001	0.00000E+000	-4.59550E-001	-5.67474E-005	11	...........	-327.56
	2988	1494.5	-4.94703E-001	-1.87413E-001	0.00000E+000	-4.95550E-001	-5.34474E-005	11	...........	-327.56
	3024	1512.5	-5.30512E-001	-2.26730E-001	0.00000E+000	-5.31550E-001	-5.35808E-005	11	...........	-327.56
	3060	1530.5	-5.66500E-001	-2.26997E-001	0.00000E+000	-5.67550E-001	-5.67808E-005	11	...........	-327.56
	3096	1548.5	-6.02431E-001	-2.65178E-001	0.00000E+000	-6.03550E-001	-5.44808E-005	11	...........	-327.56
	3132	1566.5	-6.38661E-001	-2.95452E-001	0.00000E+000	-6.39550E-001	-6.07474E-005	12	...........	-327.56
	3168	1584.5	-6.74642E-001	-3.73610E-001	0.00000E+000	-6.75550E-001	-6.01474E-005	12	...........	-327.56
	3204	1602.5	-7.10509E-001	-4.16161E-001	0.00000E+000	-7.11550E-001	-5.97808E-005	12	...........	-327.56
	3240	1620.5	-7.46482E-001	-4.55953E-001	0.00000E+000	-7.47550E-001	-6.00474E-005	12	...........	-327.56
	3276	1638.5	-7.82377E-001	-5.09145E-001	0.00000E+000	-7.83550E-001	-6.19474E-005	12	...........	-327.56
	3312	1656.5	-8.18380E-001	-5.89029E-001	0.00000E+000	-8.19550E-001	-6.01141E-005	12	...........	-327.56
	3348	1674.5	-8.54270E-001	-6.54450E-001	0.00000E+000	-8.55550E-001	-6.32474E-005	12	...........	-327.56
	3384	1692.5	-8.90192E-001	-6.48625E-001	0.00000E+000	-8.91550E-001	-6.06474E-005	12	...........	-327.56
	3420	1710.5	-9.26220E-001	-5.64568E-001	0.00000E+000	-9.27550E-001	-6.44141E-005	12	...........	-327.56
	3456	1728.5	-9.62122E-001	-6.53432E-001	0.00000E+000	-9.63550E-001	-6.35474E-005	12	...........	-327.56
	3492	1746.5	-9.98054E-001	-7.45039E-001	0.00000E+000	-9.99550E-001	-5.86808E-005	12	...........	-327.56
CURVE2	TABLE
	Pt	T	Vf	Im	Vu	Sig	Ach	IERange	Over	Temp
	#	s	V vs. Ref.	A	V	V	V	#	bits	deg C
	3493	1747	-9.97495E-001	-7.43862E-001	0.00000E+000	-9.99000E-001	-6.10474E-005	12	...........	-327.56
	3541	1771	-9.49642E-001	-6.23919E-001	0.00000E+000	-9.51000E-001	-5.78141E-005	12	...........	-327.56
	3589	1795	-9.01777E-001	-5.07706E-001	0.00000E+000	-9.03000E-001	-5.94474E-005	12	...........	-327.56
	3637	1819	-8.53913E-001	-3.97812E-001	0.00000E+000	-8.55000E-001	-6.38141E-005	12	...........	-327.56
	3685	1843	-8.06071E-001	-2.96596E-001	0.00000E+000	-8.07000E-001	-5.92141E-005	12	...........	-327.56
	3733	1867	-7.57794E-001	-2.08769E-001	0.00000E+000	-7.59000E-001	-5.11474E-005	11	...........	-327.56
	3781	1891	-7.09975E-001	-1.44836E-001	0.00000E+000	-7.11000E-001	-5.70474E-005	11	...........	-327.56
	3829	1915	-6.62107E-001	-9.46078E-002	0.00000E+000	-6.63000E-001	-5.85474E-005	11	...........	-327.56
	3877	1939	-6.14265E-001	-3.05629E-002	0.00000E+000	-6.15000E-001	-6.27474E-005	11	...........	-327.56
	3925	1963	-5.66434E-001	5.44205E-002	0.00000E+000	-5.67000E-001	-5.98474E-005	11	...........	-327.56
	3973	1987	-5.18601E-001	1.44063E-001	0.00000E+000	-5.19000E-001	-5.97808E-005	11	...........	-327.56
	4021	2011	-4.70826E-001	1.97447E-001	0.00000E+000	-4.71000E-001	-5.62474E-005	11	...........	-327.56
	4069	2035	-4.22817E-001	2.19113E-001	0.00000E+000	-4.23000E-001	-5.60808E-005	11	...........	-327.56
	4117	2059	-3.74629E-001	2.97966E-001	0.00000E+000	-3.75000E-001	-5.89141E-005	12	...........	-327.56
	4165	2083	-3.26706E-001	3.61793E-001	0.00000E+000	-3.27000E-001	-6.14808E-005	12	...........	-327.56
	4213	2107	-2.78817E-001	3.78337E-001	0.00000E+000	-2.79000E-001	-5.98474E-005	12	...........	-327.56
	4261	2131	-2.30826E-001	2.85815E-001	0.00000E+000	-2.31000E-001	-6.34141E-005	12	...........	-327.56
	4309	2155	-1.82953E-001	1.57394E-001	0.00000E+000	-1.83000E-001	-6.03474E-005	11	...........	-327.56
	4357	2179	-1.34874E-001	8.11589E-002	0.00000E+000	-1.35000E-001	-5.73474E-005	11	...........	-327.56
	4405	2203	-8.68957E-002	4.43404E-002	0.00000E+000	-8.70000E-002	-5.89808E-005	11	...........	-327.56
	4453	2227	-3.88454E-002	3.98526E-002	0.00000E+000	-3.90000E-002	-6.19141E-005	11	...........	-327.56
	4501	2251	8.86845E-003	6.85892E-002	0.00000E+000	9.00000E-003	-6.15474E-005	11	...........	-327.56
	4549	2275	5.67883E-002	1.13477E-001	0.00000E+000	5.70000E-002	-5.77808E-005	11	...........	-327.56
	4597	2299	1.04609E-001	1.61341E-001	0.00000E+000	1.05000E-001	-6.06141E-005	11	...........	-327.56
	4645	2323	1.52503E-001	1.87174E-001	0.00000E+000	1.53000E-001	-5.81474E-005	11	...........	-327.56
	4693	2347	2.00570E-001	1.24412E-001	0.00000E+000	2.01000E-001	-5.86474E-005	11	...........	-327.56
	4741	2371	2.48569E-001	9.14982E-002	0.00000E+000	2.49000E-001	-6.13474E-005	11	...........	-327.56
	4789	2395	2.96476E-001	1.06805E-001	0.00000E+000	2.97000E-001	-6.06141E-005	11	...........	-327.56
	4837	2419	3.44494E-001	1.28760E-001	0.00000E+000	3.45000E-001	-5.84808E-005	11	...........	-327.56
	4885	2443	3.92409E-001	1.54073E-001	0.00000E+000	3.93000E-001	-5.75474E-005	11	...........	-327.56
	4933	2467	4.40343E-001	1.78851E-001	0.00000E+000	4.41000E-001	-5.79141E-005	11	...........	-327.56
	4981	2491	4.88388E-001	1.22222E-001	0.00000E+000	4.89000E-001	-5.73808E-005	11	...........	-327.56
	5029	2515	5.36321E-001	1.02267E-001	0.00000E+000	5.37000E-001	-5.97808E-005	11	...........	-327.56
	5077	2539	5.84308E-001	8.60175E-002	0.00000E+000	5.85000E-001	-5.78808E-005	11	...........	-327.56
	5125	2563	6.32258E-001	7.59379E-002	0.00000E+000	6.33000E-001	-6.20808E-005	11	...........	-327.56
	5173	2587	6.80225E-001	6.54808E-002	0.00000E+000	6.81000E-001	-6.26474E-005	11	...........	-327.56
[...]
	8381	4191	-7.09959E-001	-1.55543E-001	0.00000E+000	-7.11000E-001	-5.88808E-005	11	...........	-327.56
	8405	4203	-6.86020E-001	-1.31191E-001	0.00000E+000	-6.87000E-001	-5.57808E-005	11	...........	-327.56
	8429	4215	-6.62087E-001	-1.05038E-001	0.00000E+000	-6.63000E-001	-5.61808E-005	11	...........	-327.56
	8453	4227	-6.38154E-001	-7.42836E-002	0.00000E+000	-6.39000E-001	-6.00141E-005	11	...........	-327.56
	8477	4239	-6.14255E-001	-3.89019E-002	0.00000E+000	-6.15000E-001	-6.13808E-005	11	...........	-327.56
	8501	4251	-5.90843E-001	3.27643E-004	0.00000E+000	-5.91000E-001	-5.69474E-005	8	....ih..i..	-327.56
	8525	4263	-5.66427E-001	4.49469E-002	0.00000E+000	-5.67000E-001	-6.19808E-005	11	...........	-327.56
	8549	4275	-5.42481E-001	8.71426E-002	0.00000E+000	-5.43000E-001	-6.10141E-005	11	...........	-327.56
	8573	4287	-5.18579E-001	1.31771E-001	0.00000E+000	-5.19000E-001	-5.96808E-005	11	...........	-327.56
	8597	4299	-4.94728E-001	1.57498E-001	0.00000E+000	-4.95000E-001	-6.04141E-005	11	...........	-327.56
	8621	4311	-4.70719E-001	1.41838E-001	0.00000E+000	-4.71000E-001	-5.92474E-005	11	...........	-327.56
	8645	4323	-4.46806E-001	1.62149E-001	0.00000E+000	-4.47000E-001	-6.17141E-005	11	...........	-327.56
	8669	4335	-4.22796E-001	2.05490E-001	0.00000E+000	-4.23000E-001	-5.75141E-005	11	...........	-327.56
	8693	4347	-3.98862E-001	2.42162E-001	0.00000E+000	-3.99000E-001	-5.78474E-005	11	...........	-327.56
	8717	4359	-3.74617E-001	2.73920E-001	0.00000E+000	-3.75000E-001	-5.98141E-005	12	...........	-327.56
	8741	4371	-3.50653E-001	3.02808E-001	0.00000E+000	-3.51000E-001	-6.09808E-005	12	...........	-327.56
	8765	4383	-3.26680E-001	3.14523E-001	0.00000E+000	-3.27000E-001	-6.21141E-005	12	...........	-327.56
	8789	4395	-3.02749E-001	3.23611E-001	0.00000E+000	-3.03000E-001	-6.34808E-005	12	...........	-327.56
	8813	4407	-2.78765E-001	2.99592E-001	0.00000E+000	-2.79000E-001	-6.05474E-005	12	...........	-327.56
	8837	4419	-2.54772E-001	2.48499E-001	0.00000E+000	-2.55000E-001	-6.10808E-005	12	...........	-327.56
	8861	4431	-2.30950E-001	1.90604E-001	0.00000E+000	-2.31000E-001	-5.96474E-005	11	...........	-327.56
	8885	4443	-2.06874E-001	1.30970E-001	0.00000E+000	-2.07000E-001	-6.13474E-005	11	...........	-327.56
	8909	4455	-1.82857E-001	9.09073E-002	0.00000E+000	-1.83000E-001	-5.68474E-005	11	...........	-327.56
	8933	4467	-1.58821E-001	6.54953E-002	0.00000E+000	-1.59000E-001	-6.16808E-005	11	...........	-327.56
	8957	4479	-1.34824E-001	4.89483E-002	0.00000E+000	-1.35000E-001	-6.06808E-005	11	...........	-327.56
	8981	4491	-1.10832E-001	3.93235E-002	0.00000E+000	-1.11000E-001	-6.39808E-005	11	...........	-327.56
	9005	4503	-8.68818E-002	3.54570E-002	0.00000E+000	-8.70000E-002	-5.76474E-005	11	...........	-327.56
	9029	4515	-6.29064E-002	3.52893E-002	0.00000E+000	-6.30000E-002	-6.20808E-005	11	...........	-327.56
	9053	4527	-3.88405E-002	3.78121E-002	0.00000E+000	-3.90000E-002	-5.88141E-005	11	...........	-327.56
	9077	4539	-1.48673E-002	4.52410E-002	0.00000E+000	-1.50000E-002	-6.26474E-005	11	...........	-327.56
	9101	4551	8.86990E-003	6.48845E-002	0.00000E+000	9.00000E-003	-6.28141E-005	11	...........	-327.56
	9125	4563	3.28422E-002	8.67125E-002	0.00000E+000	3.30000E-002	-6.41474E-005	11	...........	-327.56
	9149	4575	5.67931E-002	1.10341E-001	0.00000E+000	5.70000E-002	-6.12808E-005	11	...........	-327.56
	9173	4587	8.07443E-002	1.32171E-001	0.00000E+000	8.10000E-002	-5.82808E-005	11	...........	-327.56
	9197	4599	1.04636E-001	1.48600E-001	0.00000E+000	1.05000E-001	-5.83808E-005	11	...........	-327.56
	9221	4611	1.28569E-001	1.62283E-001	0.00000E+000	1.29000E-001	-5.84141E-005	11	...........	-327.56
	9245	4623	1.52530E-001	1.71405E-001	0.00000E+000	1.53000E-001	-6.04808E-005	11	...........	-327.56
	9269	4635	1.76558E-001	1.41210E-001	0.00000E+000	1.77000E-001	-5.82141E-005	11	...........	-327.56
	9293	4647	2.00623E-001	9.80852E-002	0.00000E+000	2.01000E-001	-6.34141E-005	11	...........	-327.56
	9317	4659	2.24568E-001	9.93103E-002	0.00000E+000	2.25000E-001	-5.86141E-005	11	...........	-327.56
	9341	4671	2.48553E-001	1.03012E-001	0.00000E+000	2.49000E-001	-6.23141E-005	11	...........	-327.56
	9365	4683	2.72507E-001	1.08244E-001	0.00000E+000	2.73000E-001	-5.69141E-005	11	...........	-327.56
	9389	4695	2.96458E-001	1.18539E-001	0.00000E+000	2.97000E-001	-6.27474E-005	11	...........	-327.56
	9413	4707	3.20383E-001	1.28210E-001	0.00000E+000	3.21000E-001	-5.89141E-005	11	...........	-327.56
	9437	4719	3.44476E-001	1.35985E-001	0.00000E+000	3.45000E-001	-5.88141E-005	11	...........	-327.56
	9461	4731	3.68450E-001	1.41530E-001	0.00000E+000	3.69000E-001	-5.95141E-005	11	...........	-327.56
	9485	4743	3.92413E-001	1.53796E-001	0.00000E+000	3.93000E-001	-5.70808E-005	11	...........	-327.56
	9509	4755	4.16370E-001	1.68857E-001	0.00000E+000	4.17000E-001	-5.53474E-005	11	...........	-327.56
	9533	4767	4.40364E-001	1.71458E-001	0.00000E+000	4.41000E-001	-5.71808E-005	11	...........	-327.56
	9557	4779	4.64400E-001	1.33004E-001	0.00000E+000	4.65000E-001	-5.77141E-005	11	...........	-327.56
	9581	4791	4.88383E-001	1.28620E-001	0.00000E+000	4.89000E-001	-6.14474E-005	11	...........	-327.56
	9605	4803	5.12331E-001	1.16233E-001	0.00000E+000	5.13000E-001	-5.84808E-005	11	...........	-327.56
	9629	4815	5.36312E-001	1.12686E-001	0.00000E+000	5.37000E-001	-6.14808E-005	11	...........	-327.56
	9653	4827	5.60306E-001	1.07101E-001	0.00000E+000	5.61000E-001	-6.05474E-005	11	...........	-327.56
	9677	4839	5.84275E-001	1.00375E-001	0.00000E+000	5.85000E-001	-5.76474E-005	11	...........	-327.56
	9701	4851	6.08273E-001	9.14002E-002	0.00000E+000	6.09000E-001	-6.01474E-005	11	...........	-327.56
	9725	4863	6.32252E-001	8.31426E-002	0.00000E+000	6.33000E-001	-6.14474E-005	11	...........	-327.56
	9749	4875	6.56246E-001	7.56608E-002	0.00000E+000	6.57000E-001	-6.16141E-005	11	...........	-327.56
	9773	4887	6.80226E-001	6.96718E-002	0.00000E+000	6.81000E-001	-6.20808E-005	11	...........	-327.56
	9797	4899	7.04218E-001	6.40074E-002	0.00000E+000	7.05000E-001	-5.82808E-005	11	...........	-327.56
	9821	4911	7.28289E-001	5.94515E-002	0.00000E+000	7.29000E-001	-5.99474E-005	11	...........	-327.56
	9845	4923	7.52287E-001	5.52467E-002	0.00000E+000	7.53000E-001	-5.99474E-005	11	...........	-327.56
	9869	4935	7.76255E-001	5.25239E-002	0.00000E+000	7.77000E-001	-5.87474E-005	11	...........	-327.56
	9893	4947	8.00262E-001	5.02855E-002	0.00000E+000	8.01000E-001	-5.83808E-005	11	...........	-327.56
	9917	4959	8.24198E-001	4.86270E-002	0.00000E+000	8.25000E-001	-6.05474E-005	11	...........	-327.56
	9941	4971	8.48172E-001	4.74410E-002	0.00000E+000	8.49000E-001	-6.04808E-005	11	...........	-327.56
	9965	4983	8.72151E-001	4.64549E-002	0.00000E+000	8.73000E-001	-5.96808E-005	11	...........	-327.56
	9989	4995	8.96117E-001	4.54722E-002	0.00000E+000	8.97000E-001	-6.05474E-005	11	...........	-327.56
	10013	5007	9.20098E-001	4.47372E-002	0.00000E+000	9.21000E-001	-6.14141E-005	11	...........	-327.56
	10037	5019	9.44044E-001	4.36311E-002	0.00000E+000	9.45000E-001	-5.97474E-005	11	...........	-327.56
	10061	5031	9.68025E-001	4.28432E-002	0.00000E+000	9.69000E-001	-6.16474E-005	11	...........	-327.56
	10085	5043	9.92000E-001	4.23495E-002	0.00000E+000	9.93000E-001	-6.20141E-005	11	...........	-327.56
	10109	5055	1.01598E+000	4.25392E-002	0.00000E+000	1.01700E+000	-5.77808E-005	11	...........	-327.56
	10133	5067	1.03996E+000	4.43647E-002	0.00000E+000	1.04100E+000	-6.16474E-005	11	...........	-327.56
	10157	5079	1.06395E+000	4.74506E-002	0.00000E+000	1.06500E+000	-6.00141E-005	11	...........	-327.56
	10181	5091	1.08798E+000	5.16882E-002	0.00000E+000	1.08900E+000	-5.97808E-005	11	...........	-327.56
	10205	5103	1.11195E+000	5.68666E-002	0.00000E+000	1.11300E+000	-6.08474E-005	11	...........	-327.56
	10229	5115	1.13590E+000	6.34937E-002	0.00000E+000	1.13700E+000	-5.98474E-005	11	...........	-327.56
	10253	5127	1.15987E+000	6.84595E-002	0.00000E+000	1.16100E+000	-6.05474E-005	11	...........	-327.56
	10277	5139	1.18386E+000	7.27023E-002	0.00000E+000	1.18500E+000	-6.28808E-005	11	...........	-327.56
	10301	5151	1.20784E+000	7.59383E-002	0.00000E+000	1.20900E+000	-5.89141E-005	11	...........	-327.56
	10325	5163	1.23181E+000	7.74962E-002	0.00000E+000	1.23300E+000	-5.89808E-005	11	...........	-327.56
	10349	5175	1.25579E+000	7.66660E-002	0.00000E+000	1.25700E+000	-6.25474E-005	11	...........	-327.56
	10373	5187	1.27975E+000	7.36717E-002	0.00000E+000	1.28100E+000	-6.13141E-005	11	...........	-327.56
	10392	5196.5	1.29869E+000	7.19149E-002	0.00000E+000	1.30000E+000	-5.97141E-005	11	...........	-327.56